# Wavelength(nm)  Flambda(ergs/cm^s/s/nm)
30.00 8.992038
30.50 8.773359
31.00 8.562114
31.50 8.357944
32.00 8.16225
32.50 7.976254
33.00 7.794389
33.50 7.621355
34.00 7.453486
34.50 7.292083
35.00 7.136791
35.50 6.985863
36.00 6.840505
36.50 6.700438
37.00 6.565397
37.50 6.435119
38.00 6.308134
38.50 6.185532
39.00 6.067108
39.50 5.952653
40.00 5.840863
40.50 5.732745
41.00 5.628132
41.50 5.526865
42.00 5.428797
42.50 5.333787
43.00 5.240726
43.50 5.15051
44.00 5.063017
44.50 4.978134
45.00 4.894862
45.50 4.814899
46.00 4.736385
46.50 4.660115
47.00 4.586003
47.50 4.513961
48.00 4.443126
48.50 4.375006
49.00 4.307975
49.50 4.242746
50.00 4.179251
50.50 4.117427
51.00 4.057212
51.50 3.998548
52.00 3.940711
52.50 3.884342
53.00 3.830031
53.50 3.776432
54.00 3.723534
54.50 3.672539
55.00 3.622775
55.50 3.573614
56.00 3.526198
56.50 3.47933
57.00 3.433555
57.50 3.388839
58.00 3.345149
58.50 3.30245
59.00 3.260713
59.50 3.219396
60.00 3.179499
60.50 3.139983
61.00 3.101814
61.50 3.06399
62.00 3.026978
62.50 2.990753
63.00 2.955292
63.50 2.920125
64.00 2.886132
64.50 2.852406
65.00 2.819798
65.50 2.787429
66.00 2.755713
66.50 2.725041
67.00 2.694572
67.50 2.664703
68.00 2.635028
68.50 2.606317
69.00 2.578158
69.50 2.550537
70.00 2.523071
70.50 2.496125
71.00 2.470043
71.50 2.44409
72.00 2.418618
72.50 2.393614
73.00 2.369065
73.50 2.344961
74.00 2.321289
74.50 2.298039
75.00 2.274881
75.50 2.252449
76.00 2.230408
76.50 2.208441
77.00 2.186854
77.50 2.165939
78.00 2.145083
78.50 2.12458
79.00 2.104423
79.50 2.084604
80.00 2.065114
80.50 2.045946
81.00 2.027092
81.50 2.008274
82.00 1.990031
82.50 1.972082
83.00 1.954157
83.50 1.936519
84.00 1.919416
84.50 1.90233
85.00 1.88551
85.50 1.869201
86.00 1.852898
86.50 1.836846
87.00 1.821039
87.50 1.805472
88.00 1.789908
88.50 1.77481
89.00 1.759937
89.25 1.750092
89.75 1.905414
90.25 2.269031
90.75 2.052998
91.25 2.655249
91.75 3.198834
92.25 3.666884
92.75 3.690396
93.25 3.501486
93.75 4.00225
94.25 4.540982
94.75 4.107191
95.25 4.153703
95.75 3.445049
96.25 3.910037
96.75 4.135807
97.25 4.946417
97.75 4.712723
98.25 4.857457
98.75 5.326617
99.25 5.025736
99.75 4.587309
100.25 4.216618
100.75 4.574932
101.25 4.762249
101.75 5.442507
102.25 5.965983
102.75 7.250026
103.25 7.207065
103.75 7.069021
104.25 5.946852
104.75 5.676385
105.25 5.422182
105.75 5.456566
106.25 5.416521
106.75 5.45776
107.25 5.171631
107.75 5.220127
108.25 4.811607
108.75 4.677425
109.25 4.539445
109.75 4.372312
110.25 4.445592
110.75 4.827849
111.25 4.923085
111.75 5.078572
112.25 4.98616
112.75 5.025799
113.25 4.701485
113.75 4.572367
114.25 4.482657
114.75 4.723292
115.25 4.556031
115.75 4.705345
116.25 4.803851
116.75 5.059391
117.25 5.586101
117.75 5.91886
118.25 5.582372
118.75 6.378902
119.25 7.358619
119.75 8.5068
120.25 10.31342
120.75 13.12099
121.25 18.10771
121.75 19.59084
122.25 15.68723
122.75 13.76296
123.25 12.85548
123.75 12.88145
124.25 12.08823
124.75 9.864595
125.25 8.7356
125.75 8.214301
126.25 7.89459
126.75 7.485291
127.25 6.809097
127.75 6.453993
128.25 6.258925
128.75 6.192985
129.25 6.338549
129.75 6.517067
130.25 6.763945
130.75 6.738702
131.25 6.412965
131.75 6.048294
132.25 5.975815
132.75 5.941126
133.25 6.16599
133.75 6.221876
134.25 6.024406
134.75 5.916166
135.25 5.797519
135.75 5.795046
136.25 5.847868
136.75 5.931614
137.25 5.946918
137.75 6.03033
138.25 6.249298
138.75 6.620591
139.25 7.024556
139.75 7.100989
140.25 7.115594
140.75 6.545832
141.25 6.129592
141.75 5.831326
142.25 5.669994
142.75 5.557717
143.25 5.442469
143.75 5.372358
144.25 5.319567
144.75 5.261346
145.25 5.225185
145.75 5.222531
146.25 5.288983
146.75 5.220319
147.25 5.286478
147.75 5.295404
148.25 5.35254
148.75 5.447942
149.25 5.447151
149.75 5.547657
150.25 5.530782
150.75 5.671257
151.25 5.808968
151.75 6.066223
152.25 6.397065
152.75 6.950091
153.25 7.522677
153.75 8.360244
154.25 9.299829
154.75 9.74478
155.25 8.873403
155.75 7.559141
156.25 6.771585
156.75 6.278178
157.25 5.963879
157.75 5.715807
158.25 5.557228
158.75 5.469282
159.25 5.390156
159.75 5.343738
160.25 5.31958
160.75 5.295619
161.25 5.301006
161.75 5.276562
162.25 5.279056
162.75 5.275969
163.25 5.339188
163.75 5.361152
164.25 5.268352
164.75 5.092795
165.25 5.036908
165.75 5.057806
166.25 5.042448
166.75 4.97201
167.25 4.834577
167.75 4.690352
168.25 4.592384
168.75 4.506267
169.25 4.494173
169.75 4.472748
170.25 4.456478
170.75 4.503462
171.25 4.517821
171.75 4.515416
172.25 4.505056
172.75 4.499578
173.25 4.466428
173.75 4.455107
174.25 4.511606
174.75 4.52956
175.25 4.484947
175.75 4.389931
176.25 4.329618
176.75 4.282048
177.25 4.281477
177.75 4.248855
178.25 4.251749
178.75 4.271491
179.25 4.216238
179.75 4.162092
180.25 4.128479
180.75 4.141026
181.25 4.136889
181.75 4.138746
182.25 4.122045
182.75 4.078444
183.25 4.085778
183.75 4.134133
184.25 4.179776
184.75 4.258177
185.25 4.353028
185.75 4.409657
186.25 4.400061
186.75 4.397232
187.25 4.400546
187.75 4.447284
188.25 4.635556
188.75 4.848622
189.25 5.119846
189.75 5.218217
190.25 5.365348
190.75 5.545589
191.25 5.353796
191.75 4.992122
192.25 4.609229
192.75 4.377429
193.25 4.179378
193.75 4.042927
194.25 3.901127
194.75 3.851618
195.25 3.790729
195.75 3.726642
196.25 3.661753
196.75 3.610529
197.25 3.556065
197.75 3.522875
198.25 3.530843
198.75 3.53823
199.25 3.527768
199.75 3.512391
200.25 3.496673
200.75 3.467185
201.25 3.439729
201.75 3.411615
202.25 3.409328
202.75 3.388143
203.25 3.3846
203.75 3.37627
204.25 3.379228
204.75 3.384269
205.25 3.407215
205.75 3.420946
206.25 3.447655
206.75 3.474067
207.25 3.473292
207.75 3.450739
208.25 3.423368
208.75 3.388351
209.25 3.362697
209.75 3.341761
210.25 3.318128
210.75 3.284523
211.25 3.23664
211.75 3.215335
212.25 3.171759
212.75 3.147697
213.25 3.130573
213.75 3.115153
214.25 3.096306
214.75 3.078774
215.25 3.050853
215.75 3.030525
216.25 3.01151
216.75 3.032975
217.25 3.018266
217.75 3.008227
218.25 2.986503
218.75 2.954384
219.25 2.935293
219.75 2.900647
220.25 2.897537
220.75 2.897019
221.25 2.916385
221.75 2.91536
222.25 2.912489
222.75 2.901974
223.25 2.871246
223.75 2.854102
224.25 2.847849
224.75 2.858059
225.25 2.865661
225.75 2.86998
226.25 2.872117
226.75 2.8886
227.25 2.894076
227.75 2.925572
228.25 2.933555
228.75 2.951442
229.25 2.97155
229.75 2.991112
230.25 2.995497
230.75 3.014393
231.25 3.001034
231.75 3.033464
232.25 3.06793
232.75 3.098074
233.25 3.057604
233.75 3.022406
234.25 2.995045
234.75 2.962322
235.25 2.936699
235.75 2.931075
236.25 2.912214
236.75 2.912484
237.25 2.890601
237.75 2.884523
238.25 2.885783
238.75 2.888907
239.25 2.892294
239.75 2.894059
240.25 2.889217
240.75 2.911481
241.25 2.924853
241.75 2.972987
242.25 3.01547
242.75 2.994485
243.25 2.950465
243.75 2.940499
244.25 2.926657
244.75 2.896936
245.25 2.880634
245.75 2.857568
246.25 2.87693
246.75 2.899372
247.25 2.890019
247.75 2.877483
248.25 2.867369
248.75 2.867228
249.25 2.858932
249.75 2.855019
250.25 2.846216
250.75 2.829997
251.25 2.819316
251.75 2.808413
252.25 2.796723
252.75 2.79584
253.25 2.778339
253.75 2.771325
254.25 2.762948
254.75 2.745994
255.25 2.730261
255.75 2.714077
256.25 2.700198
256.75 2.68093
257.25 2.666155
257.75 2.659353
258.25 2.640134
258.75 2.630211
259.25 2.621417
259.75 2.61294
260.25 2.597314
260.75 2.599308
261.25 2.606821
261.75 2.600822
262.25 2.592226
262.75 2.583416
263.25 2.567882
263.75 2.522611
264.25 2.492138
264.75 2.46162
265.25 2.434904
265.75 2.418851
266.25 2.429124
266.75 2.438035
267.25 2.447367
267.75 2.448054
268.25 2.433669
268.75 2.434367
269.25 2.441517
269.75 2.454301
270.25 2.462526
270.75 2.474367
271.25 2.499595
271.75 2.522177
272.25 2.534836
272.75 2.547386
273.25 2.581581
273.75 2.593835
274.25 2.608382
274.75 2.644324
275.25 2.66093
275.75 2.672652
276.25 2.679541
276.75 2.705214
277.25 2.763556
277.75 2.863573
278.25 3.016469
278.75 3.207738
279.25 3.448537
279.75 3.676064
280.25 3.662959
280.75 3.480479
281.25 3.196598
281.75 2.99201
282.25 2.822833
282.75 2.706755
283.25 2.674712
283.75 2.638394
284.25 2.573277
284.75 2.539762
285.25 2.517558
285.75 2.464548
286.25 2.43392
286.75 2.399099
287.25 2.384193
287.75 2.349757
288.25 2.328579
288.75 2.298876
289.25 2.277992
289.75 2.246489
290.25 2.236614
290.75 2.209713
291.25 2.191494
291.75 2.213674
292.25 2.227238
292.75 2.236484
293.25 2.264542
293.75 2.252656
294.25 2.253345
294.75 2.256094
295.25 2.242248
295.75 2.247053
296.25 2.233305
296.75 2.223736
297.25 2.208091
297.75 2.202717
298.25 2.177077
298.75 2.157663
299.25 2.132319
299.75 2.09709
300.25 2.060081
300.75 2.031288
301.25 1.998696
301.75 1.971464
302.25 1.946376
302.75 1.941528
303.25 1.937878
303.75 1.939523
304.25 1.941343
304.75 1.93595
305.25 1.93891
305.75 1.929678
306.25 1.93589
306.75 1.935339
307.25 1.934781
307.75 1.930405
308.25 1.931745
308.75 1.9236
309.25 1.915497
309.75 1.907437
310.25 1.92192
310.75 1.930692
311.25 1.954302
311.75 1.964752
312.25 1.991785
312.75 1.996492
313.25 2.008517
313.75 1.976452
314.25 1.971995
314.75 1.960269
315.25 1.957688
315.75 1.960544
316.25 1.957959
316.75 1.976967
317.25 1.972534
317.75 1.987781
318.25 1.986886
318.75 2.00908
319.25 2.016958
319.75 1.998298
320.25 1.995583
320.75 1.970069
321.25 1.963941
321.75 1.949125
322.25 1.937867
322.75 1.937065
323.25 1.918987
323.75 1.911342
324.25 1.900302
324.75 1.892744
325.25 1.886929
325.75 1.891346
326.25 1.888944
326.75 1.879786
327.25 1.868991
327.75 1.868333
328.25 1.871021
328.75 1.853645
329.25 1.838029
329.75 1.82582
330.25 1.826915
330.75 1.801598
331.25 1.789584
331.75 1.774354
332.25 1.757574
332.75 1.755556
333.25 1.761667
333.75 1.756393
334.25 1.778605
334.75 1.774906
335.25 1.74874
335.75 1.729126
336.25 1.719199
336.75 1.720464
337.25 1.716953
337.75 1.715037
338.25 1.711548
338.75 1.706499
339.25 1.707745
339.75 1.712104
340.25 1.725784
340.75 1.728495
341.25 1.729632
341.75 1.747755
342.25 1.784253
342.75 1.811314
343.25 1.724853
343.75 1.696929
344.25 1.684388
344.75 1.67495
345.25 1.671616
345.75 1.669805
346.25 1.664986
346.75 1.673697
347.25 1.668881
347.75 1.655131
348.25 1.651869
348.75 1.64862
349.25 1.640944
349.75 1.646583
350.25 1.630116
350.75 1.618136
351.25 1.594516
351.75 1.587068
352.25 1.568021
352.75 1.550525
353.25 1.534567
353.75 1.518694
354.25 1.51441
354.75 1.505842
355.25 1.500176
355.75 1.497388
356.25 1.50172
356.75 1.50035
357.25 1.508881
357.75 1.513127
358.25 1.515938
358.75 1.50891
359.25 1.500517
359.75 1.497744
360.25 1.49498
360.75 1.489452
361.25 1.485332
361.75 1.479849
362.25 1.477143
362.75 1.482675
363.25 1.469021
363.75 1.463621
364.25 1.458246
364.75 1.446111
365.25 1.44486
365.75 1.440912
366.25 1.436981
366.75 1.434407
367.25 1.434519
367.75 1.425282
368.25 1.413429
368.75 1.408271
369.25 1.405783
369.75 1.400664
370.25 1.3982
370.75 1.387866
371.25 1.389369
371.75 1.402611
372.25 1.4275
372.75 1.635405
373.25 1.570139
373.75 1.399268
374.25 1.392955
374.75 1.376389
375.25 1.376568
375.75 1.406143
376.25 1.383285
376.75 1.364358
377.25 1.342989
377.75 1.330582
378.25 1.333374
378.75 1.324824
379.25 1.293726
379.75 1.276555
380.25 1.260718
380.75 1.273593
381.25 1.272738
381.75 1.268168
382.25 1.273499
382.75 1.265246
383.25 1.24843
383.75 1.24763
384.25 1.250497
384.75 1.271634
385.25 1.296304
385.75 1.300223
386.25 1.323473
386.75 1.421411
387.25 1.390062
387.75 1.294047
388.25 1.272756
388.75 1.274262
389.25 1.269799
389.75 1.248721
390.25 1.236043
390.75 1.219879
391.25 1.219121
391.75 1.206603
392.25 1.192971
392.75 1.180576
393.25 1.147348
393.75 1.138034
394.25 1.175092
394.75 1.187174
395.25 1.19226
395.75 1.198468
396.25 1.203492
396.75 1.211926
397.25 1.183716
397.75 1.16477
398.25 1.164124
398.75 1.152125
399.25 1.150373
399.75 1.126829
400.25 1.12886
400.75 1.119414
401.25 1.111918
401.75 1.119328
402.25 1.114428
402.75 1.114889
403.25 1.097142
403.75 1.09498
404.25 1.102875
404.75 1.095635
405.25 1.096121
405.75 1.097367
406.25 1.100136
406.75 1.125796
407.25 1.137179
407.75 1.13005
408.25 1.140279
408.75 1.160175
409.25 1.183205
409.75 1.183544
410.25 1.194601
410.75 1.16816
411.25 1.164254
411.75 1.160364
412.25 1.138435
412.75 1.127204
413.25 1.097
413.75 1.092242
414.25 1.079089
414.75 1.060751
415.25 1.050871
415.75 1.048345
416.25 1.056244
416.75 1.059946
417.25 1.048077
417.75 1.054878
418.25 1.055453
418.75 1.05808
419.25 1.040155
419.75 1.026411
420.25 1.012729
420.75 1.014707
421.25 1.016368
421.75 1.021772
422.25 1.027453
422.75 1.019974
423.25 1.054843
423.75 1.048334
424.25 1.056895
424.75 1.061411
425.25 1.04694
425.75 1.043487
426.25 1.04104
426.75 1.051485
427.25 1.030241
427.75 1.048547
428.25 1.065783
428.75 1.066244
429.25 1.068659
429.75 1.085718
430.25 1.081246
430.75 1.083602
431.25 1.108263
431.75 1.175409
432.25 1.195874
432.75 1.203714
433.25 1.254782
433.75 1.291222
434.25 1.348548
434.75 1.286244
435.25 1.270905
435.75 1.26609
436.25 1.283104
436.75 1.253675
437.25 1.175289
437.75 1.135874
438.25 1.103213
438.75 1.080073
439.25 1.082293
439.75 1.075167
440.25 1.06062
440.75 1.047995
441.25 1.058599
441.75 1.052505
442.25 1.039976
442.75 1.02658
443.25 1.018753
443.75 1.00546
444.25 1.015086
444.75 1.016455
445.25 1.020546
445.75 1.010991
446.25 1.01779
446.75 1.033599
447.25 1.056553
447.75 1.064097
448.25 1.047352
448.75 1.054878
449.25 1.063263
449.75 1.062685
450.25 1.080802
450.75 1.093507
451.25 1.105267
451.75 1.101052
452.25 1.110091
452.75 1.098835
453.25 1.071813
453.75 1.074712
454.25 1.098588
454.75 1.09181
455.25 1.094637
455.75 1.093106
456.25 1.101116
456.75 1.102167
457.25 1.099757
457.75 1.097357
458.25 1.089806
458.75 1.084859
459.25 1.082498
459.75 1.062213
460.25 1.050535
460.75 1.044855
461.25 1.050226
461.75 1.057264
462.25 1.066804
462.75 1.066185
463.25 1.071454
463.75 1.059914
464.25 1.050933
464.75 1.035303
465.25 1.020572
465.75 1.020878
466.25 1.01952
466.75 1.006566
467.25 1.016814
467.75 1.015466
468.25 1.023999
468.75 1.034137
469.25 0.9852145
469.75 0.9765754
470.25 0.9565443
470.75 0.9561421
471.25 0.9687425
471.75 0.9577694
472.25 0.9646445
472.75 0.9569524
473.25 0.9492905
473.75 0.9585454
474.25 0.9573281
474.75 0.9545118
475.25 0.9421161
475.75 0.9369472
476.25 0.9389597
476.75 0.9330208
477.25 0.9461226
477.75 0.9520508
478.25 0.9611082
478.75 0.9535895
479.25 0.9751751
479.75 0.996668
480.25 1.01181
480.75 1.022981
481.25 1.043456
481.75 1.076286
482.25 1.117514
482.75 1.149276
483.25 1.185541
483.75 1.241706
484.25 1.301485
484.75 1.374841
485.25 1.461687
485.75 1.54282
486.25 1.728956
486.75 1.560864
487.25 1.456555
487.75 1.400465
488.25 1.327188
488.75 1.263275
489.25 1.2147
489.75 1.193409
490.25 1.151176
490.75 1.143586
491.25 1.100874
491.75 1.104607
492.25 1.071826
492.75 1.085262
493.25 1.081579
493.75 1.049036
494.25 1.041743
494.75 1.051436
495.25 1.109654
495.75 1.302756
496.25 1.315523
496.75 1.021045
497.25 0.9671664
497.75 0.9644958
498.25 0.9589259
498.75 0.9715154
499.25 1.049945
499.75 1.143959
500.25 1.36669
500.75 2.17874
501.25 1.537952
501.75 1.053847
502.25 1.014545
502.75 0.9775393
503.25 0.9727472
503.75 0.9509033
504.25 0.9149474
504.75 0.9223444
505.25 0.8978962
505.75 0.9088224
506.25 0.9077321
506.75 0.8834513
507.25 0.8641744
507.75 0.8687739
508.25 0.8572843
508.75 0.8486265
509.25 0.8692314
509.75 0.855719
510.25 0.8547359
510.75 0.8585985
511.25 0.858991
511.75 0.8676505
512.25 0.8742114
512.75 0.8608374
513.25 0.8776598
513.75 0.8882608
514.25 0.879027
514.75 0.8882187
515.25 0.9075702
515.75 0.9282021
516.25 0.9433352
516.75 0.9070404
517.25 0.8944942
517.75 0.9203716
518.25 0.9112046
518.75 0.8886582
519.25 0.9137229
519.75 0.9286687
520.25 0.9295519
520.75 0.9038081
521.25 0.8974248
521.75 0.9063137
522.25 0.9045793
522.75 0.8909615
523.25 0.9004657
523.75 0.914538
524.25 0.9259277
524.75 0.9215426
525.25 0.9106303
525.75 0.9121636
526.25 0.9169485
526.75 0.887238
527.25 0.9017871
527.75 0.9227592
528.25 0.9268343
528.75 0.9425123
529.25 0.9452425
529.75 0.9331695
530.25 0.9095851
530.75 0.9315783
531.25 0.9451732
531.75 0.938929
532.25 0.9263347
532.75 0.9004326
533.25 0.8981105
533.75 0.8983291
534.25 0.8795754
534.75 0.8791937
535.25 0.8813315
535.75 0.8878617
536.25 0.8918555
536.75 0.8858094
537.25 0.8610258
537.75 0.8637939
538.25 0.8509762
538.75 0.8506415
539.25 0.8428579
539.75 0.8357215
540.25 0.8347938
540.75 0.8196716
541.25 0.8286315
541.75 0.8498559
542.25 0.8525861
542.75 0.8479523
543.25 0.8268224
543.75 0.8307964
544.25 0.8414564
544.75 0.8247081
545.25 0.8171256
545.75 0.8150227
546.25 0.8219996
546.75 0.8162701
547.25 0.8093559
547.75 0.8006602
548.25 0.8004014
548.75 0.8091325
549.25 0.8040707
549.75 0.807386
550.25 0.8160528
550.75 0.8217118
551.25 0.8107189
551.75 0.8145863
552.25 0.8284978
552.75 0.8199112
553.25 0.8337607
553.75 0.8328445
554.25 0.8378051
554.75 0.8351225
555.25 0.8347902
555.75 0.8268609
556.25 0.8137091
556.75 0.8093366
557.25 0.8096286
557.75 0.8052772
558.25 0.8142594
558.75 0.8006626
559.25 0.794038
559.75 0.7845561
560.25 0.7952312
560.75 0.7920916
561.25 0.8055782
561.75 0.7898461
562.25 0.7964346
562.75 0.8035686
563.25 0.8129518
563.75 0.8007204
564.25 0.7834297
564.75 0.7888335
565.25 0.8055143
565.75 0.7967609
566.25 0.7863483
566.75 0.7855235
567.25 0.8082578
567.75 0.8040352
568.25 0.7981498
568.75 0.8051158
569.25 0.7881074
569.75 0.8022923
570.25 0.8075462
570.75 0.7911729
571.25 0.7881291
571.75 0.8270548
572.25 0.8305706
572.75 0.82582
573.25 0.8073541
573.75 0.8119789
574.25 0.7952408
574.75 0.8135267
575.25 0.8268387
575.75 0.8134256
576.25 0.812558
576.75 0.7997554
577.25 0.8113696
577.75 0.8050996
578.25 0.7923734
578.75 0.793699
579.25 0.8052386
579.75 0.8140529
580.25 0.8330203
580.75 0.827841
581.25 0.8285538
581.75 0.8249971
582.25 0.8331635
582.75 0.8343917
583.25 0.8478174
583.75 0.8527209
584.25 0.8512622
584.75 0.8529744
585.25 0.8736485
585.75 0.8590066
586.25 0.8654188
586.75 0.8864873
587.25 0.9257989
587.75 0.9388532
588.25 0.9043993
588.75 0.8877642
589.25 0.8316789
589.75 0.840129
590.25 0.8407785
590.75 0.8688341
591.25 0.8518763
591.75 0.834975
592.25 0.8345945
592.75 0.8357559
593.25 0.8369117
593.75 0.8140011
594.25 0.8213199
594.75 0.8250422
595.25 0.8149974
595.75 0.8136296
596.25 0.8183579
596.75 0.8261096
597.25 0.820173
597.75 0.8223379
598.25 0.8018011
598.75 0.8075107
599.25 0.8142052
599.75 0.8203747
600.25 0.8054836
600.75 0.7926413
601.25 0.7873296
601.75 0.7795418
602.25 0.7901904
602.75 0.7863965
603.25 0.7960042
603.75 0.8085498
604.25 0.8027637
604.75 0.8103197
605.25 0.8188347
605.75 0.8051868
606.25 0.8102433
606.75 0.8093986
607.25 0.815408
607.75 0.8331238
608.25 0.84395
608.75 0.8508438
609.25 0.8154116
609.75 0.7990263
610.25 0.7977175
610.75 0.7968958
611.25 0.8018727
611.75 0.802491
612.25 0.7968476
612.75 0.7955478
613.25 0.7928116
613.75 0.7924787
614.25 0.7959723
614.75 0.7980209
615.25 0.8014922
615.75 0.7868624
616.25 0.7803587
616.75 0.7762469
617.25 0.7787796
617.75 0.7808301
618.25 0.7956219
618.75 0.7834935
619.25 0.7803467
619.75 0.7743891
620.25 0.7806471
620.75 0.7770482
621.25 0.7860858
621.75 0.7703489
622.25 0.7625852
622.75 0.7818379
623.25 0.7852303
623.75 0.7830444
624.25 0.7924426
624.75 0.7897877
625.25 0.7760597
625.75 0.7679065
626.25 0.7763444
626.75 0.7842954
627.25 0.7848806
627.75 0.7868365
628.25 0.7906148
628.75 0.7939236
629.25 0.7972203
629.75 0.8291763
630.25 0.8928362
630.75 0.8242813
631.25 0.8098411
631.75 0.8008715
632.25 0.7914787
632.75 0.8051044
633.25 0.8164357
633.75 0.8066094
634.25 0.8152088
634.75 0.8027264
635.25 0.8372429
635.75 0.8292281
636.25 0.8332755
636.75 0.8568953
637.25 0.8639956
637.75 0.847998
638.25 0.839138
638.75 0.8303045
639.25 0.8338643
639.75 0.8184501
640.25 0.82818
640.75 0.8378774
641.25 0.8361327
641.75 0.8378979
642.25 0.840094
642.75 0.8636892
643.25 0.8492611
643.75 0.8657987
644.25 0.8818487
644.75 0.8783106
645.25 0.8747827
645.75 0.891174
646.25 0.8971419
646.75 0.9246647
647.25 0.9391765
647.75 0.9566538
648.25 0.9745057
648.75 0.9738621
649.25 1.003618
649.75 1.005067
650.25 1.041938
650.75 1.113217
651.25 1.170658
651.75 1.258089
652.25 1.341007
652.75 1.458405
653.25 1.551334
653.75 1.685362
654.25 1.900356
654.75 2.244781
655.25 2.551583
655.75 2.852408
656.25 3.529068
656.75 3.515746
657.25 2.61922
657.75 2.407072
658.25 2.57253
658.75 2.596908
659.25 1.921888
659.75 1.603016
660.25 1.470174
660.75 1.356748
661.25 1.275446
661.75 1.232717
662.25 1.147318
662.75 1.107785
663.25 1.052369
663.75 1.023746
664.25 0.9988895
664.75 0.9777831
665.25 0.9575539
665.75 0.9235401
666.25 0.92744
666.75 0.9130582
667.25 0.9023663
667.75 0.9006108
668.25 0.8806723
668.75 0.872495
669.25 0.8587002
669.75 0.8578213
670.25 0.8308295
670.75 0.8488469
671.25 0.847983
671.75 1.013106
672.25 0.9604803
672.75 0.8892674
673.25 1.005809
673.75 0.8917983
674.25 0.7955924
674.75 0.7864856
675.25 0.7722591
675.75 0.7754643
676.25 0.78971
676.75 0.7909074
677.25 0.7834441
677.75 0.780717
678.25 0.7932981
678.75 0.7752843
679.25 0.7698408
679.75 0.7761301
680.25 0.7687487
680.75 0.7672304
681.25 0.7637712
681.75 0.7591566
682.25 0.7712278
682.75 0.767001
683.25 0.7705181
683.75 0.7736383
684.25 0.7528486
684.75 0.7440512
685.25 0.7725613
685.75 0.7518613
686.25 0.7542152
686.75 0.7450813
687.25 0.7455256
687.75 0.7639024
688.25 0.7593637
688.75 0.7628272
689.25 0.7624804
689.75 0.7644105
690.25 0.7731525
690.75 0.7493376
691.25 0.7595859
691.75 0.7596196
692.25 0.7668084
692.75 0.754043
693.25 0.7522051
693.75 0.7604962
694.25 0.76015
694.75 0.75083
695.25 0.7546041
695.75 0.7591127
696.25 0.7665862
696.75 0.7677168
697.25 0.7959446
697.75 0.7644057
698.25 0.7677536
698.75 0.7651763
699.25 0.774787
699.75 0.7751548
700.25 0.7644785
700.75 0.7711062
701.25 0.7659698
701.75 0.76891
702.25 0.7692797
702.75 0.7765907
703.25 0.7605244
703.75 0.7714699
704.25 0.7907533
704.75 0.8056203
705.25 0.8052043
705.75 0.7957296
706.25 0.8098008
706.75 0.7996217
707.25 0.8035433
707.75 0.7854736
708.25 0.7868835
708.75 0.7667313
709.25 0.7649331
709.75 0.7459416
710.25 0.7409562
710.75 0.7684959
711.25 0.7413716
711.75 0.7178855
712.25 0.7439164
712.75 0.7343466
713.25 0.7453793
713.75 0.7691352
714.25 0.7478928
714.75 0.7387215
715.25 0.7281632
715.75 0.7341925
716.25 0.7215584
716.75 0.7296863
717.25 0.7363875
717.75 0.728705
718.25 0.7112481
718.75 0.7088611
719.25 0.7120627
719.75 0.7176934
720.25 0.7267864
720.75 0.7316851
721.25 0.7171395
721.75 0.7379738
722.25 0.7203453
722.75 0.7148573
723.25 0.735606
723.75 0.7528516
724.25 0.7401134
724.75 0.7456213
725.25 0.7373874
725.75 0.7312323
726.25 0.7291993
726.75 0.7363971
727.25 0.7459639
727.75 0.7357379
728.25 0.7398329
728.75 0.7153684
729.25 0.7174424
729.75 0.7330661
730.25 0.7662461
730.75 0.7614799
731.25 0.7584137
731.75 0.7698492
732.25 0.7879846
732.75 0.7489252
733.25 0.7630102
733.75 0.7586184
734.25 0.7629416
734.75 0.7502027
735.25 0.7398347
735.75 0.7398299
736.25 0.7315002
736.75 0.7477976
737.25 0.7437954
737.75 0.7484244
738.25 0.7255552
738.75 0.7305262
739.25 0.7414276
739.75 0.7486706
740.25 0.769727
740.75 0.7499397
741.25 0.7397311
741.75 0.727253
742.25 0.7531364
742.75 0.729876
743.25 0.7507843
743.75 0.736724
744.25 0.7370383
744.75 0.761755
745.25 0.752609
745.75 0.769774
746.25 0.7528619
746.75 0.7541201
747.25 0.7398587
747.75 0.7285407
748.25 0.7572241
748.75 0.7471992
749.25 0.7339854
749.75 0.7525922
750.25 0.7512683
750.75 0.7416221
751.25 0.7054585
751.75 0.7370955
752.25 0.7463221
752.75 0.7504273
753.25 0.730664
753.75 0.7490727
754.25 0.7096925
754.75 0.7632474
755.25 0.7426196
755.75 0.7425853
756.25 0.7409731
756.75 0.7683586
757.25 0.7346109
757.75 0.7389852
758.25 0.7489981
758.75 0.7298278
759.25 0.7410772
759.75 0.7329108
760.25 0.7403783
760.75 0.7235005
761.25 0.7153877
761.75 0.7209805
762.25 0.7079201
762.75 0.7401862
763.25 0.7358089
763.75 0.7292764
764.25 0.7446996
764.75 0.7282963
765.25 0.7057709
765.75 0.7079274
766.25 0.6956304
766.75 0.6763036
767.25 0.7119073
767.75 0.7146544
768.25 0.7201461
768.75 0.7473064
769.25 0.6929604
769.75 0.7042442
770.25 0.704243
770.75 0.7121403
771.25 0.7175887
771.75 0.7009017
772.25 0.7048366
772.75 0.7066451
773.25 0.7123727
773.75 0.7488331
774.25 0.7027054
774.75 0.7153299
775.25 0.7120049
775.75 0.7176856
776.25 0.6838133
776.75 0.7134455
777.25 0.7122294
777.75 0.7160878
778.25 0.7491384
778.75 0.7207968
779.25 0.7278971
779.75 0.7210274
780.25 0.6848247
780.75 0.6990481
781.25 0.7082073
781.75 0.7338806
782.25 0.727929
782.75 0.7325959
783.25 0.7016531
783.75 0.7083975
784.25 0.7494568
784.75 0.7004388
785.25 0.6954492
785.75 0.6960259
786.25 0.7532399
786.75 0.7260405
787.25 0.6994918
787.75 0.7079111
788.25 0.716018
788.75 0.7800939
789.25 0.7478145
789.75 0.7141686
790.25 0.7155773
790.75 0.7146724
791.25 0.6898431
791.75 0.7068226
792.25 0.7128315
792.75 0.7044657
793.25 0.6837874
793.75 0.6915198
794.25 0.7269845
794.75 0.6840661
795.25 0.6823497
795.75 0.7071447
796.25 0.7219136
796.75 0.6792144
797.25 0.7317459
797.75 0.7038872
798.25 0.6973408
798.75 0.6874158
799.25 0.693902
799.75 0.73
800.00 0.6996513
800.50 0.6993413
801.00 0.6993124
801.50 0.6990017
802.00 0.6986917
802.50 0.6986622
803.00 0.6983522
803.50 0.6980421
804.00 0.698012
804.50 0.6977026
805.00 0.6973931
805.50 0.6973618
806.00 0.6970524
806.50 0.6967436
807.00 0.6967116
807.50 0.6964028
808.00 0.696094
808.50 0.6960615
809.00 0.6957532
809.50 0.695445
810.00 0.6954119
810.50 0.6951036
811.00 0.6947954
811.50 0.6947617
812.00 0.6944541
812.50 0.6941464
813.00 0.6941115
813.50 0.6938045
814.00 0.6934968
814.50 0.6934619
815.00 0.6931549
815.50 0.6931194
816.00 0.6928123
816.50 0.6925053
817.00 0.6924692
817.50 0.6921627
818.00 0.6918557
818.50 0.691819
819.00 0.6915132
819.50 0.6912067
820.00 0.6911694
820.50 0.6908636
821.00 0.6905577
821.50 0.6905198
822.00 0.690214
822.50 0.6899088
823.00 0.6898702
823.50 0.689565
824.00 0.6895259
824.50 0.6892207
825.00 0.688916
825.50 0.6888763
826.00 0.6885717
826.50 0.688267
827.00 0.6882267
827.50 0.6879227
828.00 0.6876181
828.50 0.6875777
829.00 0.6872737
829.50 0.6872322
830.00 0.6869281
830.50 0.6866247
831.00 0.6865832
831.50 0.6862798
832.00 0.6859763
832.50 0.6859336
833.00 0.6856308
833.50 0.685588
834.00 0.6852852
834.50 0.6849824
835.00 0.6849391
835.50 0.6846362
836.00 0.684334
836.50 0.6842901
837.00 0.6839879
837.50 0.6839439
838.00 0.6836417
838.50 0.6833401
839.00 0.6832949
839.50 0.6829933
840.00 0.6826923
840.50 0.6826465
841.00 0.6823455
841.50 0.6822998
842.00 0.6819988
842.50 0.6816978
843.00 0.6816514
843.50 0.681351
844.00 0.681304
844.50 0.6810036
845.00 0.6807032
845.50 0.6806556
846.00 0.6803558
846.50 0.680056
847.00 0.6800085
847.50 0.6797087
848.00 0.6796605
848.50 0.6793607
849.00 0.6790615
849.50 0.6790127
850.00 0.6787141
850.50 0.6786648
851.00 0.6783655
851.50 0.6780669
852.00 0.6780176
852.50 0.677719
853.00 0.677669
853.50 0.677371
854.00 0.6770724
854.50 0.6770218
855.00 0.6767244
855.50 0.6766733
856.00 0.6763759
856.50 0.6760785
857.00 0.6760267
857.50 0.6757293
858.00 0.6756775
858.50 0.6753807
859.00 0.6753283
859.50 0.6750315
860.00 0.6747347
860.50 0.6746824
861.00 0.6743856
861.50 0.6743326
862.00 0.6740364
862.50 0.6737402
863.00 0.6736872
863.50 0.673391
864.00 0.6733374
864.50 0.6730418
865.00 0.6727462
865.50 0.6726921
866.00 0.6723965
866.50 0.6723423
867.00 0.6720473
867.50 0.6719919
868.00 0.6716969
868.50 0.6714025
869.00 0.6713471
869.50 0.6710528
870.00 0.6709968
870.50 0.670703
871.00 0.6706464
871.50 0.6703526
872.00 0.6700588
872.50 0.6700022
873.00 0.6697084
873.50 0.6696518
874.00 0.6693581
874.50 0.6693009
875.00 0.6690077
875.50 0.6687151
876.00 0.6686573
876.50 0.6683647
877.00 0.6683063
877.50 0.6680137
878.00 0.6679559
878.50 0.6676634
879.00 0.6673714
879.50 0.6673124
880.00 0.6670204
880.50 0.6669614
881.00 0.66667
881.50 0.6666104
882.00 0.666319
882.50 0.6662594
883.00 0.6659681
883.50 0.6656767
884.00 0.6656171
884.50 0.6653263
885.00 0.6652655
885.50 0.6649753
886.00 0.6649145
886.50 0.6646237
887.00 0.6645629
887.50 0.6642728
888.00 0.6639826
888.50 0.6639212
889.00 0.6636316
889.50 0.6635702
890.00 0.6632806
890.50 0.6632186
891.00 0.662929
891.50 0.662867
892.00 0.6625775
892.50 0.6625154
893.00 0.6622265
893.50 0.6619375
894.00 0.6618749
894.50 0.6615859
895.00 0.6615227
895.50 0.6612343
896.00 0.6611711
896.50 0.6608834
897.00 0.6608195
897.50 0.6605312
898.00 0.6604674
898.50 0.6601796
899.00 0.6601158
899.50 0.659828
900.00 0.6595408
900.50 0.6594764
901.00 0.6591893
901.50 0.6591242
902.00 0.6588377
902.50 0.6587727
903.00 0.6584861
903.50 0.6584205
904.00 0.6581339
904.50 0.6580683
905.00 0.6577823
905.50 0.6577161
906.00 0.6574301
906.50 0.6573639
907.00 0.6570786
907.50 0.6570117
908.00 0.6567264
908.50 0.6566595
909.00 0.6563742
909.50 0.6560894
910.00 0.6560226
910.50 0.6557372
911.00 0.6556704
911.50 0.6553857
912.00 0.6553182
912.50 0.6550335
913.00 0.6549661
913.50 0.6546819
914.00 0.6546139
914.50 0.6543297
915.00 0.6542617
915.50 0.6539781
916.00 0.6539095
916.50 0.6536259
917.00 0.6535573
917.50 0.6532738
918.00 0.6532051
918.50 0.6529216
919.00 0.6528523
919.50 0.65257
920.00 0.6525002
920.50 0.6522178
921.00 0.652148
921.50 0.6518656
922.00 0.6517958
922.50 0.6515134
923.00 0.6514436
923.50 0.6511613
924.00 0.6510908
924.50 0.6508091
925.00 0.6507386
925.50 0.6504575
926.00 0.6503865
926.50 0.6501053
927.00 0.6500343
927.50 0.6497531
928.00 0.6496821
928.50 0.6494009
929.00 0.6493293
929.50 0.6490488
930.00 0.6489771
930.50 0.6486966
931.00 0.6486249
931.50 0.648345
932.00 0.6482727
932.50 0.6479928
933.00 0.6479206
933.50 0.6476406
934.00 0.6475684
934.50 0.647289
935.00 0.6472162
935.50 0.6469369
936.00 0.646864
936.50 0.6465847
937.00 0.6465118
937.50 0.6462331
938.00 0.6461596
938.50 0.6458809
939.00 0.6458075
939.50 0.645734
940.00 0.6454553
940.50 0.6453818
941.00 0.6451037
941.50 0.6450296
942.00 0.6447515
942.50 0.6446775
943.00 0.6443999
943.50 0.6443253
944.00 0.6440477
944.50 0.6439731
945.00 0.6436962
945.50 0.6436209
946.00 0.643344
946.50 0.6432687
947.00 0.6429924
947.50 0.6429171
948.00 0.6426408
948.50 0.6425649
949.00 0.6424897
949.50 0.6422134
950.00 0.6421375
950.50 0.6418618
951.00 0.6417853
951.50 0.6415102
952.00 0.6414337
952.50 0.6411586
953.00 0.6410822
953.50 0.640807
954.00 0.64073
954.50 0.6404555
955.00 0.6403784
955.50 0.6403013
956.00 0.6400268
956.50 0.6399498
957.00 0.6396752
957.50 0.6395982
958.00 0.6393236
958.50 0.6392466
959.00 0.6389727
959.50 0.638895
960.00 0.6386211
960.50 0.6385434
961.00 0.6384652
961.50 0.6381918
962.00 0.6381136
962.50 0.6378409
963.00 0.637762
963.50 0.6374893
964.00 0.637411
964.50 0.6371383
965.00 0.6370594
965.50 0.6367873
966.00 0.6367085
966.50 0.6366296
967.00 0.6363575
967.50 0.636278
968.00 0.6360059
968.50 0.635927
969.00 0.6356549
969.50 0.635576
970.00 0.635496
970.50 0.6352245
971.00 0.635145
971.50 0.6348741
972.00 0.634794
972.50 0.6345231
973.00 0.634443
973.50 0.6341721
974.00 0.6340921
974.50 0.634012
975.00 0.6337411
975.50 0.633661
976.00 0.6333907
976.50 0.63331
977.00 0.6330403
977.50 0.6329596
978.00 0.6328784
978.50 0.6326087
979.00 0.632528
979.50 0.6322583
980.00 0.632177
980.50 0.6319079
981.00 0.6318266
981.50 0.6317454
982.00 0.6314763
982.50 0.6313944
983.00 0.6311259
983.50 0.631044
984.00 0.6307761
984.50 0.6306942
985.00 0.6306117
985.50 0.6303438
986.00 0.6302614
986.50 0.6299941
987.00 0.6299116
987.50 0.6298291
988.00 0.6295618
988.50 0.6294787
989.00 0.6292114
989.50 0.629129
990.00 0.6288617
990.50 0.6287792
991.00 0.6286961
991.50 0.6284294
992.00 0.6283463
992.50 0.6280796
993.00 0.6279966
993.50 0.6279129
994.00 0.6276468
994.50 0.6275631
995.00 0.6272976
995.50 0.6272139
996.00 0.6271302
996.50 0.6268641
997.00 0.6267805
997.50 0.626515
998.00 0.6264313
998.50 0.626347
999.00 0.6260815
999.50 0.6259972
1000.00 0.6257323
1000.50 0.6256481
1001.00 0.6255638
1001.50 0.6252989
1002.00 0.6252146
1002.50 0.6249503
1003.00 0.6248654
1003.50 0.6247805
1004.00 0.6245169
1004.50 0.6244314
1005.00 0.6241677
1005.50 0.6240828
1006.00 0.6239979
1006.50 0.6237342
1007.00 0.6236487
1007.50 0.6233856
1008.00 0.6233002
1008.50 0.6232147
1009.00 0.6229516
1009.50 0.6228661
1010.00 0.62278
1010.50 0.6225175
1011.00 0.622432
1011.50 0.6221696
1012.00 0.6220835
1012.50 0.6219974
1013.00 0.6217355
1013.50 0.6216488
1014.00 0.6213869
1014.50 0.6213008
1015.00 0.6212147
1015.50 0.6209529
1016.00 0.6208662
1016.50 0.6207801
1017.00 0.6205188
1017.50 0.6204321
1018.00 0.6201708
1018.50 0.6200841
1019.00 0.6199969
1019.50 0.6197362
1020.00 0.6196495
1020.50 0.6195622
1021.00 0.6193021
1021.50 0.6192148
1022.00 0.6189547
1022.50 0.6188675
1023.00 0.6187796
1023.50 0.6185201
1024.00 0.6184322
1024.50 0.6183449
1025.00 0.6180854
1025.50 0.6179975
1026.00 0.6177381
1026.50 0.6176502
1027.00 0.6175623
1027.50 0.6173034
1028.00 0.6172155
1028.50 0.6171276
1029.00 0.6168687
1029.50 0.6167808
1030.00 0.6166923
1030.50 0.6164341
1031.00 0.6163456
1031.50 0.6160873
1032.00 0.6159988
1032.50 0.6159103
1033.00 0.6156526
1033.50 0.6155641
1034.00 0.615475
1034.50 0.6152174
1035.00 0.6151289
1035.50 0.6150398
1036.00 0.6147827
1036.50 0.6146936
1037.00 0.6146045
1037.50 0.6143475
1038.00 0.6142584
1038.50 0.6141693
1039.00 0.6139128
1039.50 0.6138231
1040.00 0.6135666
1040.50 0.6134775
1041.00 0.6133878
1041.50 0.613132
1042.00 0.6130423
1042.50 0.6129526
1043.00 0.6126967
1043.50 0.612607
1044.00 0.6125173
1044.50 0.612262
1045.00 0.6121717
1045.50 0.612082
1046.00 0.6118268
1046.50 0.6117365
1047.00 0.6116462
1047.50 0.6113915
1048.00 0.6113012
1048.50 0.6112109
1049.00 0.6109562
1049.50 0.6108659
1050.00 0.6107756
1050.50 0.6105216
1051.00 0.6104307
1051.50 0.6103398
1052.00 0.6100863
1052.50 0.6099954
1053.00 0.6099045
1053.50 0.6096511
1054.00 0.6095602
1054.50 0.6094692
1055.00 0.6092158
1055.50 0.6091249
1056.00 0.609034
1056.50 0.6087805
1057.00 0.6086896
1057.50 0.6085981
1058.00 0.6083459
1058.50 0.6082544
1059.00 0.6081629
1059.50 0.6079106
1060.00 0.6078191
1060.50 0.6077276
1061.00 0.6074753
1061.50 0.6073838
1062.00 0.6072923
1062.50 0.6070407
1063.00 0.6069486
1063.50 0.6068571
1064.00 0.606765
1064.50 0.6065139
1065.00 0.6064218
1065.50 0.6063297
1066.00 0.6060786
1066.50 0.6059865
1067.00 0.6058944
1067.50 0.6056434
1068.00 0.6055513
1068.50 0.6054592
1069.00 0.6052087
1069.50 0.605116
1070.00 0.6050239
1070.50 0.6047735
1071.00 0.6046813
1071.50 0.6045886
1072.00 0.6044959
1072.50 0.6042461
1073.00 0.6041534
1073.50 0.6040607
1074.00 0.6038114
1074.50 0.6037181
1075.00 0.6036254
1075.50 0.6033762
1076.00 0.6032834
1076.50 0.6031901
1077.00 0.6029415
1077.50 0.6028488
1078.00 0.6027555
1078.50 0.6026622
1079.00 0.6024135
1079.50 0.6023202
1080.00 0.6022269
1080.50 0.601979
1081.00 0.6018856
1081.50 0.6017921
1082.00 0.6015444
1082.50 0.6014509
1083.00 0.6013573
1083.50 0.6012637
1084.00 0.6010163
1084.50 0.6009225
1085.00 0.6008288
1085.50 0.6005817
1086.00 0.6004879
1086.50 0.6003941
1087.00 0.6003001
1087.50 0.6000535
1088.00 0.5999594
1088.50 0.5998654
1089.00 0.599619
1089.50 0.5995249
1090.00 0.5994308
1090.50 0.5993365
1091.00 0.5990906
1091.50 0.5989963
1092.00 0.598902
1092.50 0.5986563
1093.00 0.5985619
1093.50 0.5984675
1094.00 0.598373
1094.50 0.5981277
1095.00 0.5980332
1095.50 0.5979385
1096.00 0.5976936
1096.50 0.597599
1097.00 0.5975043
1097.50 0.5974095
1098.00 0.5971649
1098.50 0.5970701
1099.00 0.5969753
1099.50 0.5968803
1100.00 0.5966361
1100.50 0.5965412
1101.00 0.5964462
1101.50 0.5962023
1102.00 0.5961073
1102.50 0.5960121
1103.00 0.595917
1103.50 0.5956735
1104.00 0.5955783
1104.50 0.595483
1105.00 0.5953877
1105.50 0.5951446
1106.00 0.5950493
1106.50 0.5949538
1107.00 0.5948584
1107.50 0.5946156
1108.00 0.5945201
1108.50 0.5944246
1109.00 0.5941822
1109.50 0.5940866
1110.00 0.593991
1110.50 0.5938953
1111.00 0.5936533
1111.50 0.5935576
1112.00 0.5934618
1112.50 0.5933659
1113.00 0.5931243
1113.50 0.5930284
1114.00 0.5929325
1114.50 0.5928366
1115.00 0.5925953
1115.50 0.5924993
1116.00 0.5924033
1116.50 0.5923072
1117.00 0.5920663
1117.50 0.5919702
1118.00 0.591874
1118.50 0.5917777
1119.00 0.5915373
1119.50 0.591441
1120.00 0.5913447
1120.50 0.5912484
1121.00 0.5910083
1121.50 0.5909119
1122.00 0.5908155
1122.50 0.590719
1123.00 0.5904793
1123.50 0.5903828
1124.00 0.5902862
1124.50 0.5901896
1125.00 0.5899503
1125.50 0.5898537
1126.00 0.589757
1126.50 0.5896602
1127.00 0.5894213
1127.50 0.5893246
1128.00 0.5892278
1128.50 0.589131
1129.00 0.5888925
1129.50 0.5887956
1130.00 0.5886987
1130.50 0.5886017
1131.00 0.5885047
1131.50 0.5882667
1132.00 0.5881696
1132.50 0.5880725
1133.00 0.5879754
1133.50 0.5877377
1134.00 0.5876406
1134.50 0.5875435
1135.00 0.5874462
1135.50 0.5872089
1136.00 0.5871117
1136.50 0.5870144
1137.00 0.586917
1137.50 0.5868196
1138.00 0.5865829
1138.50 0.5864855
1139.00 0.586388
1139.50 0.5862905
1140.00 0.5860541
1140.50 0.5859566
1141.00 0.585859
1141.50 0.5857615
1142.00 0.5856638
1142.50 0.5854279
1143.00 0.5853302
1143.50 0.5852325
1144.00 0.5851348
1144.50 0.5848992
1145.00 0.5848015
1145.50 0.5847038
1146.00 0.5846059
1146.50 0.584508
1147.00 0.5842729
1147.50 0.5841751
1148.00 0.5840771
1148.50 0.5839792
1149.00 0.5838812
1149.50 0.5836465
1150.00 0.5835485
1150.50 0.5834505
1151.00 0.5833524
1151.50 0.5831181
1152.00 0.58302
1152.50 0.5829219
1153.00 0.5828237
1153.50 0.5827255
1154.00 0.5824917
1154.50 0.5823935
1155.00 0.5822952
1155.50 0.5821969
1156.00 0.5820986
1156.50 0.5818653
1157.00 0.5817669
1157.50 0.5816685
1158.00 0.5815702
1158.50 0.5814717
1159.00 0.5812388
1159.50 0.5811404
1160.00 0.5810418
1160.50 0.5809433
1161.00 0.5808447
1161.50 0.5806123
1162.00 0.5805138
1162.50 0.5804152
1163.00 0.5803165
1163.50 0.5802178
1164.00 0.5799859
1164.50 0.5798872
1165.00 0.5797885
1165.50 0.5796897
1166.00 0.5795909
1166.50 0.5793595
1167.00 0.5792607
1167.50 0.5791618
1168.00 0.579063
1168.50 0.5789641
1169.00 0.5787331
1169.50 0.5786342
1170.00 0.5785353
1170.50 0.5784363
1171.00 0.5783373
1171.50 0.5782383
1172.00 0.5780078
1172.50 0.5779088
1173.00 0.5778097
1173.50 0.5777106
1174.00 0.5776115
1174.50 0.5773815
1175.00 0.5772824
1175.50 0.5771832
1176.00 0.577084
1176.50 0.5769848
1177.00 0.5768855
1177.50 0.576656
1178.00 0.5765568
1178.50 0.5764575
1179.00 0.5763582
1179.50 0.5762589
1180.00 0.5761595
1180.50 0.5759305
1181.00 0.5758312
1181.50 0.5757318
1182.00 0.5756323
1182.50 0.5755329
1183.00 0.5753044
1183.50 0.575205
1184.00 0.5751054
1184.50 0.5750059
1185.00 0.5749064
1185.50 0.5748068
1186.00 0.5745789
1186.50 0.5744793
1187.00 0.5743798
1187.50 0.5742801
1188.00 0.5741804
1188.50 0.5740807
1189.00 0.5738534
1189.50 0.5737537
1190.00 0.573654
1190.50 0.5735543
1191.00 0.5734545
1191.50 0.5733548
1192.00 0.5731279
1192.50 0.5730281
1193.00 0.5729283
1193.50 0.5728285
1194.00 0.5727286
1194.50 0.5726287
1195.00 0.5725288
1195.50 0.5723025
1196.00 0.5722027
1196.50 0.5721027
1197.00 0.5720028
1197.50 0.5719028
1198.00 0.5718028
1198.50 0.5715771
1199.00 0.5714771
1199.50 0.5713771
1200.00 0.571277
