# Wavelength(nm)  Flambda(ergs/cm^s/s/nm)
300.00 0.008873921
300.10 0.01179566
300.20 0.0135748
300.30 0.01431025
300.40 0.01450258
300.50 0.01455874
300.60 0.01461489
300.70 0.01467163
300.80 0.01473127
300.90 0.01479826
301.00 0.01487752
301.10 0.01497122
301.20 0.01507717
301.30 0.01519048
301.40 0.0153067
301.50 0.01542349
301.60 0.01554029
301.70 0.01565707
301.80 0.01577387
301.90 0.01589067
302.00 0.01600746
302.10 0.01612425
302.20 0.01624105
302.30 0.01635784
302.40 0.01647464
302.50 0.01659142
302.60 0.01670822
302.70 0.01682546
302.80 0.01694489
302.90 0.01706991
303.00 0.01720424
303.10 0.01734954
303.20 0.01750414
303.30 0.01766433
303.40 0.01782672
303.50 0.01798955
303.60 0.01815239
303.70 0.01831521
303.80 0.01847805
303.90 0.01864088
304.00 0.01880371
304.10 0.01896654
304.20 0.01912938
304.30 0.01929221
304.40 0.01945504
304.50 0.01961787
304.60 0.01978071
304.70 0.01994218
304.80 0.02009694
304.90 0.0202346
305.00 0.02034379
305.10 0.02041946
305.20 0.02046664
305.30 0.02049675
305.40 0.02052012
305.50 0.02054214
305.60 0.02056416
305.70 0.02058619
305.80 0.02060821
305.90 0.02063023
306.00 0.02065226
306.10 0.02067428
306.20 0.0206963
306.30 0.02071833
306.40 0.02074035
306.50 0.02076237
306.60 0.02078439
306.70 0.02080642
306.80 0.02082846
306.90 0.02085054
307.00 0.02087267
307.10 0.02089488
307.20 0.02091716
307.30 0.02093947
307.40 0.0209618
307.50 0.02098413
307.60 0.02100646
307.70 0.02102878
307.80 0.02105111
307.90 0.02107344
308.00 0.02109577
308.10 0.0211181
308.20 0.02114043
308.30 0.02116276
308.40 0.02118508
308.50 0.02120741
308.60 0.02122974
308.70 0.02125544
308.80 0.02129799
308.90 0.02138331
309.00 0.02153989
309.10 0.02178038
309.20 0.02209213
309.30 0.02244664
309.40 0.022818
309.50 0.02319274
309.60 0.02356748
309.70 0.02394222
309.80 0.02431696
309.90 0.02469169
310.00 0.02506643
310.10 0.02544117
310.20 0.02581591
310.30 0.02619065
310.40 0.02656538
310.50 0.02694012
310.60 0.02731485
310.70 0.0276862
310.80 0.02804061
310.90 0.02835203
311.00 0.02859181
311.10 0.02874724
311.20 0.02883103
311.30 0.02887183
311.40 0.02889569
311.50 0.02891617
311.60 0.02893664
311.70 0.02895712
311.80 0.02897759
311.90 0.02899806
312.00 0.02901853
312.10 0.029039
312.20 0.02905947
312.30 0.02907994
312.40 0.02910041
312.50 0.02912089
312.60 0.02914136
312.70 0.02916602
312.80 0.0292116
312.90 0.02931029
313.00 0.02949743
313.10 0.02978876
313.20 0.03016856
313.30 0.03060146
313.40 0.03105529
313.50 0.0315133
313.60 0.03197131
313.70 0.03242932
313.80 0.03288733
313.90 0.03334534
314.00 0.03380334
314.10 0.03426136
314.20 0.03471936
314.30 0.03517738
314.40 0.03563539
314.50 0.0360934
314.60 0.03655141
314.70 0.03701233
314.80 0.03748782
314.90 0.03800027
315.00 0.0385743
315.10 0.03922086
315.20 0.03992899
315.30 0.0406741
315.40 0.04143375
315.50 0.04219634
315.60 0.04295891
315.70 0.04372149
315.80 0.04448407
315.90 0.04524665
316.00 0.04600923
316.10 0.04677181
316.20 0.04753438
316.30 0.04829696
316.40 0.04905954
316.50 0.04982212
316.60 0.0505847
316.70 0.05133656
316.80 0.0520349
316.90 0.05259735
317.00 0.05293344
317.10 0.05300297
317.20 0.05284613
317.30 0.05255341
317.40 0.05220716
317.50 0.0518502
317.60 0.05149324
317.70 0.05113628
317.80 0.05077932
317.90 0.05042235
318.00 0.05006539
318.10 0.04970843
318.20 0.04935147
318.30 0.04899451
318.40 0.04863754
318.50 0.04828058
318.60 0.04792362
318.70 0.04757487
318.80 0.04726707
318.90 0.0470633
319.00 0.04703282
319.10 0.04720637
319.20 0.04755322
319.30 0.04800408
319.40 0.04849591
319.50 0.04899595
319.60 0.04949598
319.70 0.04999601
319.80 0.05049605
319.90 0.05099608
320.00 0.05149611
320.10 0.05199615
320.20 0.05249618
320.30 0.05299621
320.40 0.05349625
320.50 0.05399628
320.60 0.05449632
320.70 0.05499332
320.80 0.05547516
320.90 0.05591854
321.00 0.05629783
321.10 0.05660165
321.20 0.05684138
321.30 0.05704264
321.40 0.05722875
321.50 0.05741182
321.60 0.0575949
321.70 0.05777797
321.80 0.05796105
321.90 0.05814412
322.00 0.05832719
322.10 0.05851026
322.20 0.05869334
322.30 0.05887641
322.40 0.05905949
322.50 0.05924256
322.60 0.05942564
322.70 0.0596198
322.80 0.0598693
322.90 0.06025932
323.00 0.06088345
323.10 0.06178322
323.20 0.06291708
323.30 0.06419147
323.40 0.06552122
323.50 0.06686203
323.60 0.06820285
323.70 0.06954368
323.80 0.0708845
323.90 0.07222531
324.00 0.07356614
324.10 0.07490696
324.20 0.07624778
324.30 0.0775886
324.40 0.07892942
324.50 0.08027028
324.60 0.08161109
324.70 0.08295009
324.80 0.08428008
324.90 0.0855873
325.00 0.0868565
325.10 0.0880809
325.20 0.08926727
325.30 0.0904308
325.40 0.0915854
325.50 0.0927381
325.60 0.09389088
325.70 0.09504366
325.80 0.09619637
325.90 0.09734915
326.00 0.09850193
326.10 0.09965463
326.20 0.1008074
326.30 0.1019602
326.40 0.1031129
326.50 0.1042657
326.60 0.1054185
326.70 0.106575
326.80 0.1077511
326.90 0.1089763
327.00 0.1102835
327.10 0.1116871
327.20 0.1131728
327.30 0.1147077
327.40 0.1162618
327.50 0.11782
327.60 0.1193781
327.70 0.1209362
327.80 0.1224943
327.90 0.1240523
328.00 0.1256104
328.10 0.1271685
328.20 0.1287266
328.30 0.1302847
328.40 0.1318428
328.50 0.1334009
328.60 0.134959
328.70 0.1364943
328.80 0.1379159
328.90 0.1390489
329.00 0.139701
329.10 0.1397868
329.20 0.1393918
329.30 0.138708
329.40 0.1379106
329.50 0.1370904
329.60 0.1362703
329.70 0.1354501
329.80 0.1346299
329.90 0.1338097
330.00 0.1329895
330.10 0.1321693
330.20 0.1313491
330.30 0.1305289
330.40 0.1297088
330.50 0.1288886
330.60 0.1280684
330.70 0.1272651
330.80 0.1265461
330.90 0.1260413
331.00 0.1258932
331.10 0.1261651
331.20 0.1267938
331.30 0.1276367
331.40 0.1285638
331.50 0.1295078
331.60 0.1304519
331.70 0.1313959
331.80 0.13234
331.90 0.133284
332.00 0.134228
332.10 0.1351721
332.20 0.1361161
332.30 0.1370602
332.40 0.1380042
332.50 0.1389482
332.60 0.1398923
332.70 0.1408257
332.80 0.1417056
332.90 0.14245
333.00 0.1429685
333.10 0.143221
333.20 0.1432477
333.30 0.1431389
333.40 0.1429766
333.50 0.1428036
333.60 0.1426307
333.70 0.1424576
333.80 0.1422847
333.90 0.1421118
334.00 0.1419388
334.10 0.1417658
334.20 0.1415928
334.30 0.1414199
334.40 0.1412469
334.50 0.1410739
334.60 0.141045
334.70 0.1414857
334.80 0.1425216
334.90 0.1435739
335.00 0.1435408
335.10 0.1421217
335.20 0.1410508
335.30 0.1435708
335.40 0.1519348
335.50 0.1648629
335.60 0.1774052
335.70 0.1838209
335.80 0.1812807
335.90 0.1712687
336.00 0.1579987
336.10 0.1458095
336.20 0.1377268
336.30 0.1350188
336.40 0.1366584
336.50 0.1394496
336.60 0.1399431
336.70 0.1372979
336.80 0.1343521
336.90 0.1353966
337.00 0.1424991
337.10 0.1534881
337.20 0.1631953
337.30 0.1670072
337.40 0.1641041
337.50 0.1579713
337.60 0.1537341
337.70 0.1543558
337.80 0.1588978
337.90 0.1642396
338.00 0.1679957
338.10 0.1695097
338.20 0.1684357
338.30 0.16364
338.40 0.1547367
338.50 0.144357
338.60 0.1377411
338.70 0.1389731
338.80 0.1471692
338.90 0.1567607
339.00 0.1619677
339.10 0.1615332
339.20 0.1594965
339.30 0.1612216
339.40 0.1684569
339.50 0.1782033
339.60 0.1859566
339.70 0.1894924
339.80 0.1894347
339.90 0.1870251
340.00 0.1827581
340.10 0.1771443
340.20 0.1713642
340.30 0.1663143
340.40 0.161391
340.50 0.155123
340.60 0.1471561
340.70 0.1390724
340.80 0.1331372
340.90 0.1306387
341.00 0.1314909
341.10 0.134907
341.20 0.1399807
341.30 0.1456468
341.40 0.1506505
341.50 0.1540325
341.60 0.1556982
341.70 0.1564593
341.80 0.1574172
341.90 0.1591488
342.00 0.1611952
342.10 0.1621516
342.20 0.1605217
342.30 0.1559765
342.40 0.1500308
342.50 0.1452765
342.60 0.1436412
342.70 0.1451859
342.80 0.1483565
342.90 0.1512105
343.00 0.1526122
343.10 0.1527427
343.20 0.1526771
343.30 0.153339
343.40 0.1546958
343.50 0.1559492
343.60 0.1563798
343.70 0.1557903
343.80 0.1543339
343.90 0.1523708
344.00 0.1505601
344.10 0.1496637
344.20 0.1498806
344.30 0.1505109
344.40 0.1505701
344.50 0.1497315
344.60 0.1485915
344.70 0.1481463
344.80 0.1491579
344.90 0.151895
345.00 0.1562153
345.10 0.1616722
345.20 0.1675387
345.30 0.1728082
345.40 0.1763558
345.50 0.1774801
345.60 0.1764893
345.70 0.1746493
345.80 0.1733181
345.90 0.1729966
346.00 0.1731044
346.10 0.1724875
346.20 0.1702238
346.30 0.1663492
346.40 0.1620898
346.50 0.1591493
346.60 0.1583543
346.70 0.1589357
346.80 0.1592443
346.90 0.1580927
347.00 0.155368
347.10 0.1518041
347.20 0.1486186
347.30 0.1471694
347.40 0.1483198
347.50 0.1517582
347.60 0.1561435
347.70 0.1601356
347.80 0.1632919
347.90 0.166054
348.00 0.169051
348.10 0.1723953
348.20 0.1754569
348.30 0.1772793
348.40 0.1773549
348.50 0.1760697
348.60 0.1743052
348.70 0.1726347
348.80 0.1710536
348.90 0.1693771
349.00 0.1676147
349.10 0.1659228
349.20 0.1644418
349.30 0.1633732
349.40 0.1630786
349.50 0.1637886
349.60 0.1651514
349.70 0.166286
349.80 0.166562
349.90 0.1664855
350.00 0.1676392
350.10 0.1714353
350.20 0.177762
350.30 0.1848409
350.40 0.190441
350.50 0.1932886
350.60 0.1934871
350.70 0.1919201
350.80 0.1895003
350.90 0.1867382
351.00 0.1835437
351.10 0.1792678
351.20 0.1732105
351.30 0.1655207
351.40 0.1576892
351.50 0.1518314
351.60 0.1491889
351.70 0.149254
351.80 0.1503592
351.90 0.1510677
352.00 0.1509752
352.10 0.1503732
352.20 0.1496007
352.30 0.1489513
352.40 0.1490561
352.50 0.151071
352.60 0.1560425
352.70 0.1638249
352.80 0.1726673
352.90 0.1801906
353.00 0.1851392
353.10 0.1881832
353.20 0.190891
353.30 0.1941318
353.40 0.1976937
353.50 0.2011505
353.60 0.2045889
353.70 0.2083375
353.80 0.2123907
353.90 0.2163881
354.00 0.2198584
354.10 0.2221891
354.20 0.2226415
354.30 0.2209205
354.40 0.2178131
354.50 0.2149213
354.60 0.213465
354.70 0.2133828
354.80 0.2136688
354.90 0.2134292
355.00 0.2124967
355.10 0.2112308
355.20 0.2100137
355.30 0.2090225
355.40 0.2083426
355.50 0.2080113
355.60 0.2078191
355.70 0.20718
355.80 0.205404
355.90 0.2022709
356.00 0.1982924
356.10 0.1942955
356.20 0.1907143
356.30 0.1872431
356.40 0.1831713
356.50 0.1781562
356.60 0.1727849
356.70 0.1683645
356.80 0.1660112
356.90 0.165825
357.00 0.1668991
357.10 0.1680206
357.20 0.168305
357.30 0.1673754
357.40 0.1652517
357.50 0.162232
357.60 0.1588054
357.70 0.1554809
357.80 0.1525803
357.90 0.1501661
358.00 0.14822
358.10 0.1469548
358.20 0.1468972
358.30 0.1485424
358.40 0.151857
358.50 0.1561005
358.60 0.1601111
358.70 0.1628039
358.80 0.1636226
358.90 0.1628079
359.00 0.1614157
359.10 0.1609199
359.20 0.1624021
359.30 0.1657963
359.40 0.1698034
359.50 0.1727038
359.60 0.1735237
359.70 0.172639
359.80 0.1713497
359.90 0.1707813
360.00 0.1709901
360.10 0.1709665
360.20 0.1694963
360.30 0.1661361
360.40 0.1615862
360.50 0.1573403
360.60 0.1549939
360.70 0.1556084
360.80 0.1592331
360.90 0.1647935
361.00 0.1706193
361.10 0.1753948
361.20 0.1787823
361.30 0.1811638
361.40 0.1828702
361.50 0.1838297
361.60 0.1840246
361.70 0.183986
361.80 0.184505
361.90 0.1858298
362.00 0.1873691
362.10 0.1883116
362.20 0.1883719
362.30 0.1878722
362.40 0.1873521
362.50 0.1872624
362.60 0.1877529
362.70 0.1884144
362.80 0.1883508
362.90 0.1868925
363.00 0.1843761
363.10 0.1820454
363.20 0.1810481
363.30 0.1815816
363.40 0.1829753
363.50 0.1843931
363.60 0.1853719
363.70 0.1858656
363.80 0.1859684
363.90 0.1856416
364.00 0.1846463
364.10 0.182709
364.20 0.179799
364.30 0.176282
364.40 0.1728429
364.50 0.1702633
364.60 0.1691187
364.70 0.1694581
364.80 0.1707338
364.90 0.1722158
365.00 0.1736585
365.10 0.1755488
365.20 0.178506
365.30 0.1823595
365.40 0.1859255
365.50 0.1878256
365.60 0.1876241
365.70 0.1861582
365.80 0.1847307
365.90 0.1840536
366.00 0.1839805
366.10 0.1841013
366.20 0.1843878
366.30 0.1851374
366.40 0.1864274
366.50 0.1878147
366.60 0.1885694
366.70 0.1881453
366.80 0.1864657
366.90 0.183881
367.00 0.180986
367.10 0.1784562
367.20 0.1769054
367.30 0.1767278
367.40 0.1779276
367.50 0.1800839
367.60 0.1825573
367.70 0.184821
367.80 0.1866805
367.90 0.1882385
368.00 0.189677
368.10 0.1910391
368.20 0.1921516
368.30 0.1927092
368.40 0.1924734
368.50 0.1914961
368.60 0.1902136
368.70 0.1892655
368.80 0.1891045
368.90 0.18972
369.00 0.1907643
369.10 0.1919617
369.20 0.1932978
369.30 0.1947597
369.40 0.1960048
369.50 0.1964466
369.60 0.1957625
369.70 0.1942893
369.80 0.1929066
369.90 0.1925381
370.00 0.1936717
370.10 0.1961691
370.20 0.1994214
370.30 0.2026781
370.40 0.2053044
370.50 0.2068886
370.60 0.2072885
370.70 0.2067433
370.80 0.2058891
370.90 0.2054745
371.00 0.2058753
371.10 0.2067825
371.20 0.2073193
371.30 0.2064946
371.40 0.2037565
371.50 0.1993586
371.60 0.1943232
371.70 0.1899625
371.80 0.1872799
371.90 0.1866444
372.00 0.1878214
372.10 0.1900413
372.20 0.1919453
372.30 0.1918224
372.40 0.1884006
372.50 0.1818444
372.60 0.1740545
372.70 0.1678176
372.80 0.1653863
372.90 0.1674929
373.00 0.1732938
373.10 0.1809828
373.20 0.1885399
373.30 0.1942784
373.40 0.1971817
373.50 0.1969768
373.60 0.1939472
373.70 0.1886626
373.80 0.1818581
373.90 0.1745017
374.00 0.1678068
374.10 0.1630218
374.20 0.1611121
374.30 0.1625899
374.40 0.1675543
374.50 0.1757271
374.60 0.1863495
374.70 0.1980379
374.80 0.2088707
374.90 0.2168758
375.00 0.2207073
375.10 0.2200786
375.20 0.2157155
375.30 0.2089782
375.40 0.2014439
375.50 0.1945756
375.60 0.1893736
375.70 0.1861082
375.80 0.1843349
375.90 0.1832641
376.00 0.1823084
376.10 0.181514
376.20 0.1816528
376.30 0.1839031
376.40 0.1892747
376.50 0.1981741
376.60 0.2103941
376.70 0.2252469
376.80 0.2414699
376.90 0.2569602
377.00 0.2689476
377.10 0.2749433
377.20 0.2738785
377.30 0.2665192
377.40 0.2549025
377.50 0.2413734
377.60 0.2279146
377.70 0.215953
377.80 0.2063091
377.90 0.1991538
378.00 0.194111
378.10 0.1905827
378.20 0.1880993
378.30 0.1864077
378.40 0.185332
378.50 0.1847275
378.60 0.1846169
378.70 0.1852672
378.80 0.1870748
378.90 0.1904836
379.00 0.1961197
379.10 0.2048679
379.20 0.2175054
379.30 0.2340208
379.40 0.2531948
379.50 0.2727752
379.60 0.2899971
379.70 0.302133
379.80 0.3071108
379.90 0.3041588
380.00 0.2942011
380.10 0.2795884
380.20 0.2632017
380.30 0.2474654
380.40 0.2338371
380.50 0.2228443
380.60 0.2143707
380.70 0.2079028
380.80 0.2027124
380.90 0.1981729
381.00 0.1940676
381.10 0.1905814
381.20 0.1879281
381.30 0.186
381.40 0.1844721
381.50 0.1832616
381.60 0.1827094
381.70 0.1831467
381.80 0.1842844
381.90 0.1851538
382.00 0.1848111
382.10 0.1831555
382.20 0.181059
382.30 0.1797742
382.40 0.1815143
382.50 0.1915861
382.60 0.2155831
382.70 0.2471436
382.80 0.265105
382.90 0.2537884
383.00 0.2267336
383.10 0.2212094
383.20 0.2590954
383.30 0.321945
383.40 0.3722469
383.50 0.3922195
383.60 0.393514
383.70 0.3927363
383.80 0.3881317
383.90 0.3673777
384.00 0.3308305
384.10 0.29438
384.20 0.2718479
384.30 0.2603345
384.40 0.2470477
384.50 0.2255169
384.60 0.1996801
384.70 0.1771648
384.80 0.1641149
384.90 0.1635922
385.00 0.1761262
385.10 0.198355
385.20 0.2195284
385.30 0.2254308
385.40 0.2080541
385.50 0.1746853
385.60 0.1430987
385.70 0.1249462
385.80 0.1192966
385.90 0.1226557
386.00 0.1398359
386.10 0.1786457
386.20 0.2348549
386.30 0.2845086
386.40 0.2985831
386.50 0.2702138
386.60 0.2261243
386.70 0.2053753
386.80 0.2215035
386.90 0.2513171
387.00 0.2634227
387.10 0.2514137
387.20 0.2333043
387.30 0.2261347
387.40 0.2296119
387.50 0.23339
387.60 0.2335209
387.70 0.2379381
387.80 0.2562142
387.90 0.2834986
388.00 0.2986379
388.10 0.2853005
388.20 0.2521579
388.30 0.2223813
388.40 0.2064082
388.50 0.1961041
388.60 0.1859281
388.70 0.1864783
388.80 0.2106064
388.90 0.2562506
389.00 0.307663
389.10 0.346824
389.20 0.3629183
389.30 0.3580188
389.40 0.348076
389.50 0.3510435
389.60 0.3676955
389.70 0.3795491
389.80 0.3685991
389.90 0.335996
390.00 0.2986743
390.10 0.2702126
390.20 0.2521417
390.30 0.2435705
390.40 0.2473156
390.50 0.2601401
390.60 0.2644498
390.70 0.2425207
390.80 0.2001144
390.90 0.1668128
391.00 0.1668049
391.10 0.1958235
391.20 0.2299032
391.30 0.2493505
391.40 0.2515027
391.50 0.2428723
391.60 0.2284687
391.70 0.2105829
391.80 0.1936544
391.90 0.1842667
392.00 0.1850918
392.10 0.1941322
392.20 0.2096271
392.30 0.2310213
392.40 0.2520523
392.50 0.2573729
392.60 0.2348558
392.70 0.1896672
392.80 0.1422769
392.90 0.1139611
393.00 0.1142073
393.10 0.1369132
393.20 0.1633856
393.30 0.1718203
393.40 0.1519309
393.50 0.1159398
393.60 0.09027098
393.70 0.09487871
393.80 0.1299926
393.90 0.1806185
394.00 0.2305998
394.10 0.2672906
394.20 0.2793322
394.30 0.259575
394.40 0.2152272
394.50 0.1720314
394.60 0.16103
394.70 0.1933432
394.80 0.2472626
394.90 0.285403
395.00 0.287858
395.10 0.2672688
395.20 0.2480458
395.30 0.2405025
395.40 0.240396
395.50 0.242968
395.60 0.2451776
395.70 0.2398287
395.80 0.2217538
395.90 0.2002407
396.00 0.1936626
396.10 0.2099391
396.20 0.2394544
396.30 0.2649643
396.40 0.2742967
396.50 0.2660113
396.60 0.2495996
396.70 0.239965
396.80 0.2462817
396.90 0.2618782
397.00 0.2671807
397.10 0.2464567
397.20 0.2042221
397.30 0.1657204
397.40 0.1566042
397.50 0.1810654
397.60 0.221522
397.70 0.2586307
397.80 0.2882222
397.90 0.317848
398.00 0.350563
398.10 0.3779283
398.20 0.3885736
398.30 0.3808749
398.40 0.3644113
398.50 0.3502362
398.60 0.3408746
398.70 0.3288349
398.80 0.3057771
398.90 0.2749781
399.00 0.2553054
399.10 0.265371
399.20 0.3044152
399.30 0.3535327
399.40 0.3947865
399.50 0.4210417
399.60 0.4285903
399.70 0.415681
399.80 0.392631
399.90 0.3812037
400.00 0.3915706
400.10 0.4076578
400.20 0.4054667
400.30 0.3821639
400.40 0.3591219
400.50 0.3567023
400.60 0.3720133
400.70 0.3839042
400.80 0.3760179
400.90 0.3519226
401.00 0.3309114
401.10 0.3294132
401.20 0.3467503
401.30 0.3681961
401.40 0.3808409
401.50 0.3856505
401.60 0.3910593
401.70 0.3981491
401.80 0.3978518
401.90 0.3840247
402.00 0.3649183
402.10 0.3575517
402.20 0.371519
402.30 0.4008945
402.40 0.4294193
402.50 0.4416915
402.60 0.432701
402.70 0.4077551
402.80 0.3748768
402.90 0.3386534
403.00 0.3010725
403.10 0.2665895
403.20 0.2412506
403.30 0.226287
403.40 0.2186611
403.50 0.2173749
403.60 0.2281944
403.70 0.259709
403.80 0.3118092
403.90 0.3688912
404.00 0.408317
404.10 0.4177361
404.20 0.4016978
404.30 0.3710007
404.40 0.3326988
404.50 0.2953453
404.60 0.272063
404.70 0.2702069
404.80 0.2832438
404.90 0.3002393
405.00 0.3181903
405.10 0.3390338
405.20 0.3599245
405.30 0.3738091
405.40 0.3776503
405.50 0.3739878
405.60 0.3666707
405.70 0.3577997
405.80 0.3481588
405.90 0.3392888
406.00 0.3327347
406.10 0.3275001
406.20 0.32004
406.30 0.3084736
406.40 0.2960282
406.50 0.2870641
406.60 0.28273
406.70 0.2828032
406.80 0.2881662
406.90 0.2960323
407.00 0.2967348
407.10 0.2819913
407.20 0.2557697
407.30 0.2322307
407.40 0.2220052
407.50 0.2259201
407.60 0.2408984
407.70 0.2646541
407.80 0.2938785
407.90 0.3245912
408.00 0.3577307
408.10 0.3970627
408.20 0.437945
408.30 0.4654897
408.40 0.4698053
408.50 0.4601358
408.60 0.4555666
408.70 0.4651596
408.80 0.480772
408.90 0.4871096
409.00 0.4756355
409.10 0.4506311
409.20 0.4259911
409.30 0.4143386
409.40 0.417282
409.50 0.4245053
409.60 0.4228918
409.70 0.4067012
409.80 0.3832791
409.90 0.3687128
410.00 0.3739996
410.10 0.3928254
410.20 0.4065257
410.30 0.4065114
410.40 0.4053496
410.50 0.4196242
410.60 0.447019
410.70 0.4689526
410.80 0.473709
410.90 0.467667
411.00 0.4620861
411.10 0.4581844
411.20 0.4500373
411.30 0.437098
411.40 0.4267661
411.50 0.4232665
411.60 0.4202479
411.70 0.4079944
411.80 0.3875367
411.90 0.3752561
412.00 0.3881602
412.10 0.4257149
412.20 0.4680327
412.30 0.491984
412.40 0.4905737
412.50 0.4765727
412.60 0.4666059
412.70 0.4640764
412.80 0.4598542
412.90 0.4461327
413.00 0.4258741
413.10 0.4062005
413.20 0.3885393
413.30 0.3713917
413.40 0.3561036
413.50 0.3443909
413.60 0.3326978
413.70 0.3162657
413.80 0.2998389
413.90 0.2962113
414.00 0.3099316
414.10 0.3278332
414.20 0.3313153
414.30 0.3158797
414.40 0.2953725
414.50 0.2876671
414.60 0.2995882
414.70 0.3246625
414.80 0.3507792
414.90 0.3676322
415.00 0.3695379
415.10 0.3572224
415.20 0.3401243
415.30 0.3340239
415.40 0.3489655
415.50 0.3775589
415.60 0.4007864
415.70 0.4086191
415.80 0.4099209
415.90 0.4180837
416.00 0.4329524
416.10 0.4434315
416.20 0.4442128
416.30 0.4399466
416.40 0.4337124
416.50 0.4202267
416.60 0.3946645
416.70 0.3637106
416.80 0.3415402
416.90 0.3363902
417.00 0.3440598
417.10 0.3536526
417.20 0.3568487
417.30 0.3519968
417.40 0.3430583
417.50 0.33812
417.60 0.3448805
417.70 0.3637584
417.80 0.3859288
417.90 0.3995742
418.00 0.398082
418.10 0.3822622
418.20 0.3593264
418.30 0.3397477
418.40 0.330773
418.50 0.3289391
418.60 0.3232759
418.70 0.3106229
418.80 0.303746
418.90 0.3177898
419.00 0.3500871
419.10 0.3818962
419.20 0.4006701
419.30 0.4136396
419.40 0.4339099
419.50 0.4581522
419.60 0.4670403
419.70 0.4482442
419.80 0.4113133
419.90 0.3757799
420.00 0.3511978
420.10 0.334409
420.20 0.3214379
420.30 0.3141255
420.40 0.3143981
420.50 0.3201994
420.60 0.3302568
420.70 0.3445369
420.80 0.3573717
420.90 0.3580235
421.00 0.3433744
421.10 0.3270405
421.20 0.3290759
421.30 0.3542633
421.40 0.3852117
421.50 0.397098
421.60 0.3763477
421.70 0.3285501
421.80 0.272686
421.90 0.2280818
422.00 0.2035328
422.10 0.1953448
422.20 0.1941035
422.30 0.1925725
422.40 0.1872683
422.50 0.1768437
422.60 0.1637544
422.70 0.154909
422.80 0.1561911
422.90 0.1670752
423.00 0.1820239
423.10 0.1955876
423.20 0.2051091
423.30 0.21068
423.40 0.2141169
423.50 0.2164812
423.60 0.216153
423.70 0.2123979
423.80 0.2115325
423.90 0.2237449
424.00 0.2515422
424.10 0.2854082
424.20 0.3131145
424.30 0.3313667
424.40 0.34463
424.50 0.3546893
424.60 0.3581291
424.70 0.3529883
424.80 0.3414089
424.90 0.3253298
425.00 0.304275
425.10 0.2800493
425.20 0.2611631
425.30 0.2574186
425.40 0.2712036
425.50 0.2963777
425.60 0.3217735
425.70 0.3369938
425.80 0.3383099
425.90 0.3309085
426.00 0.325431
426.10 0.3298802
426.20 0.3439094
426.30 0.360614
426.40 0.3731969
426.50 0.3783742
426.60 0.3767361
426.70 0.3722599
426.80 0.3702814
426.90 0.3733827
427.00 0.3769885
427.10 0.3725175
427.20 0.3576081
427.30 0.3403207
427.40 0.3307153
427.50 0.3315531
427.60 0.3386714
427.70 0.3470388
427.80 0.3534717
427.90 0.3544755
428.00 0.3471137
428.10 0.3330062
428.20 0.3180265
428.30 0.3074369
428.40 0.3021896
428.50 0.3008485
428.60 0.3035467
428.70 0.3100036
428.80 0.3149138
428.90 0.3107388
429.00 0.2959783
429.10 0.2776514
429.20 0.2656911
429.30 0.2672856
429.40 0.2850956
429.50 0.3145696
429.60 0.3415575
429.70 0.3508069
429.80 0.3405884
429.90 0.3246964
430.00 0.3175633
430.10 0.3209623
430.20 0.327252
430.30 0.3315861
430.40 0.3357653
430.50 0.3411178
430.60 0.3423086
430.70 0.331157
430.80 0.3072997
430.90 0.2821525
431.00 0.2701387
431.10 0.2766847
431.20 0.2974169
431.30 0.3277619
431.40 0.3663365
431.50 0.4065608
431.60 0.432688
431.70 0.4325183
431.80 0.412586
431.90 0.3941945
432.00 0.3918391
432.10 0.4002101
432.20 0.4055312
432.30 0.4034722
432.40 0.4015863
432.50 0.4070848
432.60 0.4171806
432.70 0.4225834
432.80 0.4181566
432.90 0.4078339
433.00 0.4011129
433.10 0.4059563
433.20 0.4224257
433.30 0.4425076
433.40 0.455348
433.50 0.4531089
433.60 0.4339536
433.70 0.4024774
433.80 0.3693055
433.90 0.3488768
434.00 0.3522794
434.10 0.3775573
434.20 0.408826
434.30 0.4274781
434.40 0.4254718
434.50 0.4083147
434.60 0.3887395
434.70 0.3791045
434.80 0.3861449
434.90 0.4075429
435.00 0.4307424
435.10 0.4404293
435.20 0.4304766
435.30 0.4088206
435.40 0.3905398
435.50 0.3847139
435.60 0.3872042
435.70 0.3869427
435.80 0.3788957
435.90 0.368862
436.00 0.3657431
436.10 0.3725721
436.20 0.3876465
436.30 0.4113901
436.40 0.4448151
436.50 0.4809505
436.60 0.5053315
436.70 0.5076919
436.80 0.4909306
436.90 0.4668814
437.00 0.4465554
437.10 0.4356636
437.20 0.4355855
437.30 0.4439649
437.40 0.453609
437.50 0.4559566
437.60 0.447798
437.70 0.4349554
437.80 0.4283738
437.90 0.4341681
438.00 0.4458045
438.10 0.4470249
438.20 0.425854
438.30 0.387579
438.40 0.3547879
438.50 0.3498792
438.60 0.3756106
438.70 0.4140469
438.80 0.4436413
438.90 0.45674
439.00 0.4595099
439.10 0.4595554
439.20 0.4587821
439.30 0.4556512
439.40 0.4489868
439.50 0.4391534
439.60 0.4289757
439.70 0.4256323
439.80 0.4364507
439.90 0.459357
440.00 0.4805896
440.10 0.4849132
440.20 0.46955
440.30 0.446629
440.40 0.431362
440.50 0.4299408
440.60 0.4388746
440.70 0.4524408
440.80 0.4683043
440.90 0.4845646
441.00 0.495892
441.10 0.4975315
441.20 0.4912438
441.30 0.4843478
441.40 0.481245
441.50 0.4797103
441.60 0.4785161
441.70 0.4833174
441.80 0.4999611
441.90 0.5243579
442.00 0.5432202
442.10 0.5463542
442.20 0.5353425
442.30 0.519216
442.40 0.5053189
442.50 0.496327
442.60 0.493005
442.70 0.4957438
442.80 0.5038347
442.90 0.5142811
443.00 0.524032
443.10 0.5324312
443.20 0.5397724
443.30 0.544631
443.40 0.543088
443.50 0.5324049
443.60 0.5164071
443.70 0.5056782
443.80 0.5086434
443.90 0.5230328
444.00 0.5385084
444.10 0.5486317
444.20 0.5579834
444.30 0.5752219
444.40 0.6016976
444.50 0.6283466
444.60 0.6429297
444.70 0.6401048
444.80 0.6259935
444.90 0.6134175
445.00 0.6108879
445.10 0.6136317
445.20 0.6062142
445.30 0.5766305
445.40 0.5303217
445.50 0.490147
445.60 0.479482
445.70 0.5028096
445.80 0.5420797
445.90 0.5733115
446.00 0.5870336
446.10 0.5924168
446.20 0.6024885
446.30 0.618856
446.40 0.6329224
446.50 0.6391632
446.60 0.6410534
446.70 0.6432412
446.80 0.6450248
446.90 0.6432056
447.00 0.6379641
447.10 0.6326457
447.20 0.6290884
447.30 0.6281666
447.40 0.6334086
447.50 0.6491311
447.60 0.6734105
447.70 0.6950567
447.80 0.7005133
447.90 0.6862222
448.00 0.6627484
448.10 0.6454416
448.20 0.6422311
448.30 0.6494349
448.40 0.6583586
448.50 0.6641203
448.60 0.6676073
448.70 0.6714017
448.80 0.67561
448.90 0.6783784
449.00 0.6800737
449.10 0.684504
449.20 0.6941374
449.30 0.7049314
449.40 0.7077542
449.50 0.6966807
449.60 0.6762867
449.70 0.6594663
449.80 0.6571607
449.90 0.669708
450.00 0.6877695
450.10 0.7024119
450.20 0.7136237
450.30 0.7269122
450.40 0.7422194
450.50 0.7491686
450.60 0.7367475
450.70 0.707103
450.80 0.6766636
450.90 0.6631345
451.00 0.6710456
451.10 0.6889086
451.20 0.6996024
451.30 0.6952565
451.40 0.6836335
451.50 0.6793032
451.60 0.6892545
451.70 0.7081247
451.80 0.7268159
451.90 0.7416221
452.00 0.753233
452.10 0.761902
452.20 0.7670117
452.30 0.767626
452.40 0.7596986
452.50 0.736218
452.60 0.6949124
452.70 0.6465575
452.80 0.6108535
452.90 0.6012554
453.00 0.6151447
453.10 0.6357147
453.20 0.6424362
453.30 0.6242114
453.40 0.5878499
453.50 0.5558775
453.60 0.5523852
453.70 0.5864408
453.80 0.6459237
453.90 0.7068108
454.00 0.7503621
454.10 0.7735875
454.20 0.7838566
454.30 0.7852675
454.40 0.7752153
454.50 0.753128
454.60 0.7261219
454.70 0.7024874
454.80 0.684816
454.90 0.6739809
455.00 0.6735154
455.10 0.6844712
455.20 0.6983549
455.30 0.7031724
455.40 0.6979525
455.50 0.697107
455.60 0.7164556
455.70 0.7555588
455.80 0.7967654
455.90 0.8219969
456.00 0.8294037
456.10 0.8314271
456.20 0.8393428
456.30 0.8539081
456.40 0.870688
456.50 0.8885761
456.60 0.908569
456.70 0.9266839
456.80 0.9338685
456.90 0.9244882
457.00 0.9018507
457.10 0.8755529
457.20 0.8559702
457.30 0.8505489
457.40 0.8607829
457.50 0.8786694
457.60 0.8888836
457.70 0.8797182
457.80 0.8530995
457.90 0.8230734
458.00 0.805613
458.10 0.8084884
458.20 0.8258793
458.30 0.8404248
458.40 0.8340535
458.50 0.8021337
458.60 0.7581045
458.70 0.7225238
458.80 0.7073782
458.90 0.7109971
459.00 0.7248788
459.10 0.7422701
459.20 0.7610755
459.30 0.7811383
459.40 0.8002739
459.50 0.814693
459.60 0.8224135
459.70 0.824244
459.80 0.8214824
459.90 0.8140101
460.00 0.8022601
460.10 0.7904762
460.20 0.784877
460.30 0.7874928
460.40 0.7940472
460.50 0.7985667
460.60 0.8004897
460.70 0.8058232
460.80 0.8203569
460.90 0.8431319
461.00 0.8677999
461.10 0.8892669
461.20 0.9061148
461.30 0.9174632
461.40 0.9215685
461.50 0.9193862
461.60 0.9173992
461.70 0.9240029
461.80 0.9426252
461.90 0.9696249
462.00 0.9957718
462.10 1.009008
462.20 1.000897
462.30 0.9726315
462.40 0.93398
462.50 0.8955141
462.60 0.8622775
462.70 0.8366468
462.80 0.8230695
462.90 0.8242614
463.00 0.834802
463.10 0.8430355
463.20 0.8409931
463.30 0.8308872
463.40 0.8198384
463.50 0.8106256
463.60 0.8014998
463.70 0.7941073
463.80 0.7958454
463.90 0.8108185
464.00 0.8315401
464.10 0.8448621
464.20 0.8455379
464.30 0.8391808
464.40 0.8309607
464.50 0.8175502
464.60 0.7950882
464.70 0.7705793
464.80 0.7593497
464.90 0.7690148
465.00 0.7895943
465.10 0.8034457
465.20 0.8041602
465.30 0.8022364
465.40 0.810515
465.50 0.8285168
465.60 0.8462998
465.70 0.8610524
465.80 0.8813851
465.90 0.9124032
466.00 0.9433998
466.10 0.9561685
466.20 0.9433595
466.30 0.9157228
466.40 0.8930442
466.50 0.8886378
466.60 0.8992297
466.70 0.9086014
466.80 0.9014444
466.90 0.8749008
467.00 0.8371866
467.10 0.7971693
467.20 0.7611857
467.30 0.7375357
467.40 0.7355006
467.50 0.7572882
467.60 0.7933944
467.70 0.8277628
467.80 0.8473716
467.90 0.8472388
468.00 0.8301055
468.10 0.805594
468.20 0.7857473
468.30 0.7785748
468.40 0.7849917
468.50 0.7996803
468.60 0.8157521
468.70 0.8299071
468.80 0.8431707
468.90 0.8572103
469.00 0.8704715
469.10 0.8789681
469.20 0.8825944
469.30 0.8862334
469.40 0.8923233
469.50 0.8963591
469.60 0.892781
469.70 0.8835998
469.80 0.8771416
469.90 0.8772609
470.00 0.8785232
470.10 0.8744195
470.20 0.867053
470.30 0.8667764
470.40 0.8810224
470.50 0.9037729
470.60 0.9188424
470.70 0.9160785
470.80 0.9034101
470.90 0.8992629
471.00 0.911989
471.10 0.9297095
471.20 0.9320008
471.30 0.9088124
471.40 0.8674356
471.50 0.8248289
471.60 0.7960161
471.70 0.7876116
471.80 0.797664
471.90 0.8189492
472.00 0.8418017
472.10 0.8573107
472.20 0.8610271
472.30 0.8550992
472.40 0.8467796
472.50 0.8427122
472.60 0.843652
472.70 0.8450486
472.80 0.843471
472.90 0.8424743
473.00 0.8498154
473.10 0.867019
473.20 0.8852162
473.30 0.8940306
473.40 0.8925107
473.50 0.8878363
473.60 0.884719
473.70 0.8816238
473.80 0.8773075
473.90 0.8751917
474.00 0.8793894
474.10 0.8890954
474.20 0.899485
474.30 0.9071621
474.40 0.9136472
474.50 0.923501
474.60 0.938414
474.70 0.9538543
474.80 0.9636045
474.90 0.967102
475.00 0.9686164
475.10 0.9701647
475.20 0.9689104
475.30 0.9627232
475.40 0.9537934
475.50 0.9450264
475.60 0.9357765
475.70 0.9225162
475.80 0.9028181
475.90 0.8768048
476.00 0.845579
476.10 0.8098684
476.20 0.7712293
476.30 0.7346916
476.40 0.7075538
476.50 0.6937879
476.60 0.6911275
476.70 0.6934558
476.80 0.6942999
476.90 0.6888301
477.00 0.6762611
477.10 0.6620368
477.20 0.6552802
477.30 0.66149
477.40 0.6780213
477.50 0.6964608
477.60 0.7075314
477.70 0.7054294
477.80 0.6906453
477.90 0.6696227
478.00 0.6503188
478.10 0.6377483
478.20 0.6337129
478.30 0.6392149
478.40 0.6547246
478.50 0.6771809
478.60 0.6997108
478.70 0.7161827
478.80 0.7249165
478.90 0.7277953
479.00 0.7273879
479.10 0.7265953
479.20 0.7301981
479.30 0.7426015
479.40 0.7624143
479.50 0.7821949
479.60 0.7953608
479.70 0.8021076
479.80 0.80806
479.90 0.8181825
480.00 0.8338211
480.10 0.8533927
480.20 0.8717274
480.30 0.8804019
480.40 0.8722419
480.50 0.8463298
480.60 0.8076885
480.70 0.7634128
480.80 0.7217
480.90 0.6926079
481.00 0.6836235
481.10 0.6932879
481.20 0.712289
481.30 0.7314232
481.40 0.7468806
481.50 0.7576797
481.60 0.7625211
481.70 0.761878
481.80 0.7600513
481.90 0.7624483
482.00 0.7712319
482.10 0.7841249
482.20 0.7970902
482.30 0.8056074
482.40 0.8046052
482.50 0.7922151
482.60 0.7747975
482.70 0.7653471
482.80 0.7725414
482.90 0.7912034
483.00 0.8075589
483.10 0.8142582
483.20 0.8162524
483.30 0.8212303
483.40 0.8279691
483.50 0.8288686
483.60 0.8234497
483.70 0.8220831
483.80 0.8336085
483.90 0.8533706
484.00 0.867057
484.10 0.8657473
484.20 0.8533983
484.30 0.8401087
484.40 0.8329944
484.50 0.8337366
484.60 0.8400755
484.70 0.8475858
484.80 0.8510761
484.90 0.847004
485.00 0.8352723
485.10 0.8181564
485.20 0.798814
485.30 0.780686
485.40 0.7668409
485.50 0.7589897
485.60 0.7572172
485.70 0.7605152
485.80 0.7675642
485.90 0.7760436
486.00 0.781986
486.10 0.7811299
486.20 0.7722991
486.30 0.7605192
486.40 0.7544822
486.50 0.759638
486.60 0.7740343
486.70 0.7915117
486.80 0.8076893
486.90 0.8213828
487.00 0.8313504
487.10 0.8349237
487.20 0.8311789
487.30 0.8236362
487.40 0.8185769
487.50 0.8200747
487.60 0.8271384
487.70 0.8358548
487.80 0.8433793
487.90 0.8491049
488.00 0.8532528
488.10 0.8555497
488.20 0.8550613
488.30 0.8516152
488.40 0.84826
488.50 0.8520728
488.60 0.8691183
488.70 0.8958611
488.80 0.9185026
488.90 0.9249229
489.00 0.9158034
489.10 0.9019534
489.20 0.8922056
489.30 0.8865661
489.40 0.8803995
489.50 0.8716389
489.60 0.863124
489.70 0.8600257
489.80 0.8650684
489.90 0.8750138
490.00 0.8824545
490.10 0.8823913
490.20 0.8778474
490.30 0.8781793
490.40 0.8921905
490.50 0.9225375
490.60 0.9642898
490.70 1.006508
490.80 1.036226
490.90 1.045319
491.00 1.036013
491.10 1.018993
491.20 1.004692
491.30 0.9971336
491.40 0.9958492
491.50 1.000742
491.60 1.011425
491.70 1.022563
491.80 1.024624
491.90 1.012188
492.00 0.9915985
492.10 0.9783785
492.20 0.9852161
492.30 1.011674
492.40 1.045389
492.50 1.073513
492.60 1.093276
492.70 1.110851
492.80 1.131289
492.90 1.152866
493.00 1.169604
493.10 1.176588
493.20 1.172593
493.30 1.16019
493.40 1.145371
493.50 1.134248
493.60 1.127782
493.70 1.120969
493.80 1.108447
493.90 1.090857
494.00 1.07685
494.10 1.07812
494.20 1.099912
494.30 1.134409
494.40 1.164831
494.50 1.179346
494.60 1.180679
494.70 1.180458
494.80 1.186286
494.90 1.197447
495.00 1.210461
495.10 1.221887
495.20 1.223083
495.30 1.197149
495.40 1.12786
495.50 1.015147
495.60 0.8808793
495.70 0.7581971
495.80 0.673891
495.90 0.6373183
496.00 0.6410687
496.10 0.6683418
496.20 0.7003897
496.30 0.7227222
496.40 0.7303235
496.50 0.7285525
496.60 0.7280335
496.70 0.7367163
496.80 0.7554334
496.90 0.7797959
497.00 0.8050044
497.10 0.8287761
497.20 0.8512381
497.30 0.8729256
497.40 0.8930244
497.50 0.9099632
497.60 0.923169
497.70 0.9330394
497.80 0.9367835
497.90 0.9257931
498.00 0.8927739
498.10 0.8446408
498.20 0.8045207
498.30 0.7951506
498.40 0.8191839
498.50 0.8586141
498.60 0.8923494
498.70 0.9106501
498.80 0.9157694
498.90 0.915722
499.00 0.919044
499.10 0.9295364
499.20 0.9425596
499.30 0.949308
499.40 0.9477003
499.50 0.9457615
499.60 0.9429477
499.70 0.9107465
499.80 0.8058983
499.90 0.6142515
500.00 0.7903885
500.10 0.6999437
500.20 0.7934892
500.30 0.8405916
500.40 0.7991919
500.50 0.7429228
500.60 0.8114223
500.70 0.8315401
500.80 0.7278401
500.90 0.6281237
501.00 0.7234583
501.10 0.8961251
501.20 0.9155473
501.30 0.7960026
501.40 0.7693731
501.50 0.821446
501.60 0.8232418
501.70 0.7785276
501.80 0.7601248
501.90 0.7990354
502.00 0.9206959
502.10 0.9655592
502.20 0.8439832
502.30 0.775239
502.40 0.7662869
502.50 0.7970602
502.60 0.8708856
502.70 0.838354
502.80 0.8275494
502.90 0.8680908
503.00 0.8364935
503.10 0.8842637
503.20 0.9164223
503.30 0.9153584
503.40 0.9164207
503.50 0.8917116
503.60 0.918565
503.70 0.8992226
503.80 0.8740258
503.90 0.8406801
504.00 0.8053569
504.10 0.733172
504.20 0.7854402
504.30 0.8449111
504.40 0.8956279
504.50 0.9740479
504.60 0.9718001
504.70 1.021255
504.80 1.072289
504.90 1.005588
505.00 0.8882576
505.10 0.9053458
505.20 0.8832599
505.30 0.8463717
505.40 0.9238116
505.50 0.9618443
505.60 0.8819708
505.70 0.9177288
505.80 1.01403
505.90 1.043721
506.00 1.014225
506.10 0.9987428
506.20 1.001742
506.30 0.9572561
506.40 0.899244
506.50 0.890209
506.60 0.8747214
506.70 0.8803363
506.80 0.907215
506.90 0.8966017
507.00 0.8552762
507.10 0.8780631
507.20 0.9734069
507.30 0.9599031
507.40 0.9102399
507.50 0.9618625
507.60 0.980224
507.70 0.9558073
507.80 0.886001
507.90 0.8788772
508.00 0.8966341
508.10 0.894738
508.20 0.9034591
508.30 0.9049024
508.40 0.8826316
508.50 0.9216041
508.60 0.973184
508.70 0.9486749
508.80 0.969915
508.90 1.035409
509.00 0.9982409
509.10 0.9229335
509.20 0.9962721
509.30 1.054151
509.40 1.071379
509.50 0.9788772
509.60 0.8467274
509.70 0.8820072
509.80 0.979221
509.90 0.9922972
510.00 0.9667945
510.10 0.9576094
510.20 0.9827311
510.30 0.9608042
510.40 0.935013
510.50 0.9244669
510.60 0.8684749
510.70 0.8882046
510.80 0.9546463
510.90 0.9437334
511.00 0.9279122
511.10 0.9204375
511.20 0.9319574
511.30 0.9004675
511.40 0.9784496
511.50 1.099594
511.60 1.061915
511.70 1.031657
511.80 1.10733
511.90 1.166119
512.00 1.048746
512.10 1.009173
512.20 1.025528
512.30 1.031666
512.40 0.9836693
512.50 0.9420901
512.60 0.9812357
512.70 1.010463
512.80 0.9366847
512.90 0.9096992
513.00 0.8987531
513.10 0.897634
513.20 0.8830458
513.30 0.9893625
513.40 1.05469
513.50 1.030292
513.60 0.9302762
513.70 0.9743538
513.80 1.076617
513.90 1.061804
514.00 0.9518325
514.10 0.9448573
514.20 1.011568
514.30 1.018868
514.40 1.017401
514.50 0.9889633
514.60 0.9428979
514.70 0.8540504
514.80 0.8758761
514.90 0.9908951
515.00 1.002774
515.10 0.9018467
515.20 0.8752422
515.30 0.8878869
515.40 0.8246684
515.50 0.7908461
515.60 0.9424332
515.70 1.035186
515.80 1.081957
515.90 1.123016
516.00 1.081632
516.10 1.141573
516.20 1.211376
516.30 1.151501
516.40 1.120463
516.50 1.170818
516.60 1.072159
516.70 0.8826838
516.80 0.7137744
516.90 0.600466
517.00 0.5562721
517.10 0.6205592
517.20 0.5662309
517.30 0.4921885
517.40 0.5302211
517.50 0.5966554
517.60 0.6790824
517.70 0.7429274
517.80 0.7272531
517.90 0.7174243
518.00 0.7036039
518.10 0.6690874
518.20 0.6259894
518.30 0.5882893
518.40 0.5706369
518.50 0.6264836
518.60 0.7855117
518.70 0.8918689
518.80 0.8735477
518.90 0.892238
519.00 0.8974624
519.10 0.904157
519.20 0.885571
519.30 0.8611544
519.40 0.8269788
519.50 0.856872
519.60 0.8879825
519.70 0.9414025
519.80 0.9963187
519.90 0.9613329
520.00 0.9565132
520.10 0.9850904
520.20 0.9402604
520.30 0.9505789
520.40 0.9228489
520.50 0.8090425
520.60 0.6701778
520.70 0.6383612
520.80 0.6423148
520.90 0.618137
521.00 0.6284376
521.10 0.6717659
521.20 0.8341713
521.30 1.009052
521.40 1.097383
521.50 1.118457
521.60 1.070868
521.70 1.093344
521.80 1.181016
521.90 1.165822
522.00 1.164931
522.10 1.194046
522.20 1.169166
522.30 1.178648
522.40 1.270453
522.50 1.238375
522.60 1.135685
522.70 1.04322
522.80 1.052303
522.90 1.103142
523.00 1.241161
523.10 1.312989
523.20 1.330589
523.30 1.306024
523.40 1.348551
523.50 1.269422
523.60 1.271168
523.70 1.327366
523.80 1.380221
523.90 1.353872
524.00 1.343127
524.10 1.263497
524.20 1.130781
524.30 1.089536
524.40 1.142111
524.50 1.227537
524.60 1.240678
524.70 1.180384
524.80 1.110098
524.90 1.13536
525.00 1.181248
525.10 1.190257
525.20 1.101563
525.30 1.113144
525.40 1.151538
525.50 1.179196
525.60 1.268308
525.70 1.281607
525.80 1.238532
525.90 1.315376
526.00 1.270769
526.10 1.185557
526.20 1.101842
526.30 1.077982
526.40 1.039876
526.50 0.9801584
526.60 0.9132339
526.70 0.9986037
526.80 1.123026
526.90 1.047994
527.00 0.9259947
527.10 0.8564626
527.20 0.9472814
527.30 1.056928
527.40 1.112067
527.50 1.202786
527.60 1.315414
527.70 1.290839
527.80 1.295613
527.90 1.297043
528.00 1.286549
528.10 1.271568
528.20 1.277215
528.30 1.258185
528.40 1.245953
528.50 1.235003
528.60 1.313389
528.70 1.327357
528.80 1.39991
528.90 1.436948
529.00 1.433456
529.10 1.399306
529.20 1.31611
529.30 1.311893
529.40 1.332093
529.50 1.35221
529.60 1.342978
529.70 1.283102
529.80 1.215296
529.90 1.140013
530.00 1.168831
530.10 1.29877
530.20 1.374723
530.30 1.358423
530.40 1.398888
530.50 1.42063
530.60 1.48474
530.70 1.467438
530.80 1.41437
530.90 1.292093
531.00 1.377787
531.10 1.374332
531.20 1.330124
531.30 1.333068
531.40 1.363894
531.50 1.314382
531.60 1.366531
531.70 1.412503
531.80 1.380555
531.90 1.456061
532.00 1.471775
532.10 1.408147
532.20 1.366428
532.30 1.38478
532.40 1.360178
532.50 1.285749
532.60 1.28314
532.70 1.36641
532.80 1.312302
532.90 1.125218
533.00 1.03396
533.10 1.179985
533.20 1.282174
533.30 1.326568
533.40 1.358275
533.50 1.352934
533.60 1.349034
533.70 1.37423
533.80 1.389758
533.90 1.344539
534.00 1.292585
534.10 1.296458
534.20 1.333728
534.30 1.342179
534.40 1.351829
534.50 1.379097
534.60 1.370497
534.70 1.328313
534.80 1.306172
534.90 1.280623
535.00 1.276221
535.10 1.315599
535.20 1.415512
535.30 1.516094
535.40 1.577483
535.50 1.505711
535.60 1.453238
535.70 1.473605
535.80 1.483496
535.90 1.409067
536.00 1.430251
536.10 1.490164
536.20 1.468487
536.30 1.434514
536.40 1.422803
536.50 1.364655
536.60 1.430418
536.70 1.514459
536.80 1.486319
536.90 1.413162
537.00 1.382431
537.10 1.343925
537.20 1.283251
537.30 1.277735
537.40 1.382403
537.50 1.487935
537.60 1.494297
537.70 1.487898
537.80 1.53935
537.90 1.613007
538.00 1.544124
538.10 1.559987
538.20 1.577698
538.30 1.562865
538.40 1.537938
538.50 1.502683
538.60 1.544403
538.70 1.586446
538.80 1.670887
538.90 1.649015
539.00 1.57988
539.10 1.549139
539.20 1.549408
539.30 1.563237
539.40 1.577735
539.50 1.513392
539.60 1.402325
539.70 1.380174
539.80 1.371806
539.90 1.39951
540.00 1.518852
540.10 1.61272
540.20 1.619175
540.30 1.670747
540.40 1.655683
540.50 1.55577
540.60 1.422376
540.70 1.374109
540.80 1.408361
540.90 1.459126
541.00 1.439474
541.10 1.403727
541.20 1.392043
541.30 1.461132
541.40 1.573657
541.50 1.633115
541.60 1.651829
541.70 1.630208
541.80 1.615729
541.90 1.656445
542.00 1.723982
542.10 1.698665
542.20 1.648569
542.30 1.591276
542.40 1.554535
542.50 1.532886
542.60 1.603925
542.70 1.660559
542.80 1.689981
542.90 1.631545
543.00 1.55095
543.10 1.481007
543.20 1.500278
543.30 1.515648
543.40 1.480896
543.50 1.503278
543.60 1.481963
543.70 1.527955
543.80 1.61115
543.90 1.605717
544.00 1.635409
544.10 1.706912
544.20 1.745028
544.30 1.770586
544.40 1.795894
544.50 1.773818
544.60 1.626363
544.70 1.488743
544.80 1.362426
544.90 1.270249
545.00 1.233536
545.10 1.145362
545.20 1.054969
545.30 1.064683
545.40 1.116915
545.50 1.124818
545.60 1.144368
545.70 1.096409
545.80 1.075883
545.90 1.130809
546.00 1.208293
546.10 1.177143
546.20 1.173085
546.30 1.167726
546.40 1.138963
546.50 1.190285
546.60 1.262893
546.70 1.249092
546.80 1.273917
546.90 1.314949
547.00 1.287235
547.10 1.266237
547.20 1.318757
547.30 1.395322
547.40 1.41489
547.50 1.362203
547.60 1.315079
547.70 1.304417
547.80 1.320753
547.90 1.359055
548.00 1.370784
548.10 1.366512
548.20 1.352163
548.30 1.369781
548.40 1.39978
548.50 1.476957
548.60 1.497492
548.70 1.497864
548.80 1.480255
548.90 1.44317
549.00 1.407423
549.10 1.423927
549.20 1.45828
549.30 1.539535
549.40 1.559958
549.50 1.491669
549.60 1.46455
549.70 1.400662
549.80 1.301222
549.90 1.258036
550.00 1.306878
550.10 1.23844
550.20 1.159349
550.30 1.131542
550.40 1.174014
550.50 1.202925
550.60 1.185651
550.70 1.143848
550.80 1.156628
550.90 1.273416
551.00 1.321905
551.10 1.311318
551.20 1.275274
551.30 1.212036
551.40 1.175434
551.50 1.170855
551.60 1.160547
551.70 1.185131
551.80 1.270138
551.90 1.284803
552.00 1.285527
552.10 1.302383
552.20 1.346136
552.30 1.369401
552.40 1.407367
552.50 1.362166
552.60 1.314048
552.70 1.302346
552.80 1.296272
552.90 1.263553
553.00 1.251414
553.10 1.313491
553.20 1.303795
553.30 1.227351
553.40 1.199424
553.50 1.259207
553.60 1.298975
553.70 1.244421
553.80 1.231549
553.90 1.242368
554.00 1.257739
554.10 1.201467
554.20 1.251266
554.30 1.26997
554.40 1.26633
554.50 1.242071
554.60 1.257692
554.70 1.300907
554.80 1.307185
554.90 1.316203
555.00 1.378446
555.10 1.351941
555.20 1.337768
555.30 1.284031
555.40 1.274196
555.50 1.353612
555.60 1.301306
555.70 1.259494
555.80 1.267258
555.90 1.372614
556.00 1.451538
556.10 1.419757
556.20 1.368621
556.30 1.354374
556.40 1.298501
556.50 1.284394
556.60 1.373785
556.70 1.443597
556.80 1.423639
556.90 1.416562
557.00 1.449885
557.10 1.430586
557.20 1.404405
557.30 1.402408
557.40 1.403699
557.50 1.403699
557.60 1.403699
557.70 1.403699
557.80 1.403699
557.90 1.403699
558.00 1.403699
558.10 1.403699
558.20 1.403811
558.30 1.403151
558.40 1.395711
558.50 1.424168
558.60 1.49843
558.70 1.531196
558.80 1.454463
558.90 1.366466
559.00 1.343415
559.10 1.353222
559.20 1.423843
559.30 1.451445
559.40 1.431115
559.50 1.358832
559.60 1.373766
559.70 1.398517
559.80 1.348783
559.90 1.233035
560.00 1.181973
560.10 1.229895
560.20 1.256197
560.30 1.267166
560.40 1.281542
560.50 1.268373
560.60 1.305429
560.70 1.35091
560.80 1.335651
560.90 1.312673
561.00 1.325146
561.10 1.374323
561.20 1.416144
561.30 1.41346
561.40 1.347297
561.50 1.333068
561.60 1.332567
561.70 1.302699
561.80 1.270639
561.90 1.257405
562.00 1.295529
562.10 1.339096
562.20 1.384075
562.30 1.371964
562.40 1.414992
562.50 1.414937
562.60 1.391727
562.70 1.414705
562.80 1.418772
562.90 1.341371
563.00 1.298882
563.10 1.211748
563.20 1.20664
563.30 1.293319
563.40 1.386703
563.50 1.405008
563.60 1.381187
563.70 1.376784
563.80 1.333533
563.90 1.31011
564.00 1.378317
564.10 1.36954
564.20 1.310221
564.30 1.300972
564.40 1.32836
564.50 1.288406
564.60 1.286576
564.70 1.346285
564.80 1.394245
564.90 1.432871
565.00 1.474366
565.10 1.483004
565.20 1.506621
565.30 1.475156
565.40 1.434932
565.50 1.450219
565.60 1.54978
565.70 1.594535
565.80 1.550941
565.90 1.46584
566.00 1.483366
566.10 1.506714
566.20 1.477942
566.30 1.489198
566.40 1.483923
566.50 1.452402
566.60 1.408083
566.70 1.434756
566.80 1.467865
566.90 1.426871
567.00 1.33383
567.10 1.37606
567.20 1.40225
567.30 1.372856
567.40 1.383675
567.50 1.455523
567.60 1.464828
567.70 1.456757
567.80 1.49791
567.90 1.545832
568.00 1.580177
568.10 1.578738
568.20 1.503176
568.30 1.435071
568.40 1.447108
568.50 1.461959
568.60 1.543548
568.70 1.607185
568.80 1.511516
568.90 1.420333
569.00 1.448158
569.10 1.460018
569.20 1.442223
569.30 1.486087
569.40 1.521128
569.50 1.560488
569.60 1.481815
569.70 1.495086
569.80 1.56971
569.90 1.567054
570.00 1.514553
570.10 1.510318
570.20 1.547885
570.30 1.604621
570.40 1.604491
570.50 1.527917
570.60 1.556718
570.70 1.690371
570.80 1.665444
570.90 1.589223
571.00 1.592436
571.10 1.598909
571.20 1.614819
571.30 1.723583
571.40 1.766481
571.50 1.694263
571.60 1.683136
571.70 1.691003
571.80 1.675632
571.90 1.661423
572.00 1.60568
572.10 1.577586
572.20 1.671945
572.30 1.716951
572.40 1.656668
572.50 1.62053
572.60 1.646777
572.70 1.669698
572.80 1.593049
572.90 1.572979
573.00 1.631053
573.10 1.661469
573.20 1.636589
573.30 1.694811
573.40 1.67749
573.50 1.700894
573.60 1.769063
573.70 1.706495
573.80 1.650715
573.90 1.663122
574.00 1.723211
574.10 1.746179
574.20 1.786895
574.30 1.730353
574.40 1.67111
574.50 1.708324
574.60 1.762079
574.70 1.775778
574.80 1.753488
574.90 1.705277
575.00 1.786514
575.10 1.841124
575.20 1.820171
575.30 1.803045
575.40 1.817385
575.50 1.82696
575.60 1.780394
575.70 1.837335
575.80 1.835134
575.90 1.829867
576.00 1.773772
576.10 1.72323
576.20 1.712141
576.30 1.624571
576.40 1.546046
576.50 1.558129
576.60 1.560051
576.70 1.562578
576.80 1.553439
576.90 1.663745
577.00 1.753906
577.10 1.695703
577.20 1.624264
577.30 1.629242
577.40 1.643099
577.50 1.570779
577.60 1.579313
577.70 1.65728
577.80 1.731905
577.90 1.6741
578.00 1.610221
578.10 1.64973
578.20 1.711416
578.30 1.748445
578.40 1.745065
578.50 1.757621
578.60 1.752615
578.70 1.740319
578.80 1.727864
578.90 1.763676
579.00 1.801076
579.10 1.720695
579.20 1.658015
579.30 1.733651
579.40 1.765757
579.50 1.741851
579.60 1.806222
579.70 1.852222
579.80 1.8043
579.90 1.804457
580.00 1.859262
580.10 1.89004
580.20 1.846362
580.30 1.859447
580.40 1.932112
580.50 1.95768
580.60 1.963819
580.70 1.968584
580.80 1.95065
580.90 1.92979
581.00 1.927013
581.10 1.897396
581.20 1.867258
581.30 1.797919
581.40 1.69899
581.50 1.6526
581.60 1.643396
581.70 1.625555
581.80 1.654439
581.90 1.629363
582.00 1.599411
582.10 1.563571
582.20 1.551582
582.30 1.531762
582.40 1.522939
582.50 1.575477
582.60 1.642059
582.70 1.606321
582.80 1.57883
582.90 1.575998
583.00 1.581839
583.10 1.633422
583.20 1.665695
583.30 1.653064
583.40 1.699306
583.50 1.758717
583.60 1.739167
583.70 1.634425
583.80 1.551182
583.90 1.543808
584.00 1.583279
584.10 1.611717
584.20 1.683016
584.30 1.724048
584.40 1.683973
584.50 1.705473
584.60 1.690492
584.70 1.643833
584.80 1.607435
584.90 1.560636
585.00 1.501123
585.10 1.429843
585.20 1.398535
585.30 1.409633
585.40 1.404599
585.50 1.389025
585.60 1.35051
585.70 1.305531
585.80 1.272812
585.90 1.317029
586.00 1.399009
586.10 1.478973
586.20 1.487155
586.30 1.411528
586.40 1.349767
586.50 1.343211
586.60 1.345987
586.70 1.350873
586.80 1.41229
586.90 1.394263
587.00 1.332994
587.10 1.259002
587.20 1.280075
587.30 1.305411
587.40 1.280688
587.50 1.22748
587.60 1.159089
587.70 1.166602
587.80 1.16246
587.90 1.135063
588.00 1.091793
588.10 1.100746
588.20 1.060531
588.30 1.039839
588.40 1.027905
588.50 0.9350778
588.60 0.9184046
588.70 0.9533089
588.80 0.8031185
588.90 0.6072086
589.00 0.5670649
589.10 0.5245057
589.20 0.3281415
589.30 0.3606695
589.40 0.47872
589.50 0.5582708
589.60 0.5472068
589.70 0.5443323
589.80 0.50816
589.90 0.488076
590.00 0.6640834
590.10 0.7417804
590.20 0.7332175
590.30 0.866846
590.40 0.9444487
590.50 0.9312705
590.60 0.9539681
590.70 1.045755
590.80 1.041911
590.90 0.9779856
591.00 1.015237
591.10 1.137431
591.20 1.178314
591.30 1.143022
591.40 1.120361
591.50 1.119366
591.60 1.176689
591.70 1.209761
591.80 1.237093
591.90 1.212928
592.00 1.256002
592.10 1.247959
592.20 1.208005
592.30 1.181583
592.40 1.137904
592.50 1.104479
592.60 1.167281
592.70 1.201802
592.80 1.17706
592.90 1.141229
593.00 1.19778
593.10 1.244811
593.20 1.252046
593.30 1.259113
593.40 1.278171
593.50 1.290756
593.60 1.264351
593.70 1.262382
593.80 1.296737
593.90 1.315209
594.00 1.353102
594.10 1.395805
594.20 1.343043
594.30 1.323113
594.40 1.365138
594.50 1.421029
594.60 1.442213
594.70 1.438322
594.80 1.400504
594.90 1.380926
595.00 1.363865
595.10 1.333477
595.20 1.255594
595.30 1.209147
595.40 1.244133
595.50 1.291591
595.60 1.279332
595.70 1.240753
595.80 1.207095
595.90 1.237957
596.00 1.2873
596.10 1.318581
596.20 1.291703
596.30 1.24664
596.40 1.250003
596.50 1.268085
596.60 1.26633
596.70 1.315525
596.80 1.374035
596.90 1.388821
597.00 1.390297
597.10 1.374026
597.20 1.383517
597.30 1.357801
597.40 1.346387
597.50 1.344009
597.60 1.30452
597.70 1.306274
597.80 1.338065
597.90 1.354996
598.00 1.331211
598.10 1.296179
598.20 1.374026
598.30 1.455625
598.40 1.418475
598.50 1.428812
598.60 1.479874
598.70 1.508228
598.80 1.454027
598.90 1.450915
599.00 1.447201
599.10 1.446337
599.20 1.411342
599.30 1.499368
599.40 1.576583
599.50 1.575534
599.60 1.584607
599.70 1.583317
599.80 1.553922
599.90 1.515974
600.00 1.544291
600.10 1.530722
600.20 1.482456
600.30 1.465729
600.40 1.476939
600.50 1.498773
600.60 1.528019
600.70 1.545414
600.80 1.5086
600.90 1.47562
601.00 1.520608
601.10 1.535105
601.20 1.538663
601.30 1.549426
601.40 1.540344
601.50 1.53518
601.60 1.556708
601.70 1.574168
601.80 1.590848
601.90 1.587514
602.00 1.599829
602.10 1.627543
602.20 1.619072
602.30 1.550653
602.40 1.531865
602.50 1.546241
602.60 1.542331
602.70 1.553197
602.80 1.629633
602.90 1.697523
603.00 1.693585
603.10 1.677787
603.20 1.667255
603.30 1.670078
603.40 1.714259
603.50 1.752049
603.60 1.727029
603.70 1.621887
603.80 1.551786
603.90 1.538774
604.00 1.574688
604.10 1.648532
604.20 1.646721
604.30 1.662593
604.40 1.683861
604.50 1.700606
604.60 1.729601
604.70 1.764512
604.80 1.749309
604.90 1.722905
605.00 1.739613
605.10 1.801764
605.20 1.791938
605.30 1.714908
605.40 1.670357
605.50 1.688505
605.60 1.714249
605.70 1.75321
605.80 1.807819
605.90 1.826357
606.00 1.786542
606.10 1.773995
606.20 1.810875
606.30 1.845758
606.40 1.799442
606.50 1.636839
606.60 1.563962
606.70 1.64178
606.80 1.705342
606.90 1.723639
607.00 1.763435
607.10 1.790507
607.20 1.797483
607.30 1.798058
607.40 1.776242
607.50 1.778147
607.60 1.794771
607.70 1.82879
607.80 1.843046
607.90 1.825809
608.00 1.776614
608.10 1.722069
608.20 1.703596
608.30 1.681873
608.40 1.712894
608.50 1.761243
608.60 1.787536
608.70 1.796321
608.80 1.795514
608.90 1.782427
609.00 1.786988
609.10 1.792151
609.20 1.795179
609.30 1.817915
609.40 1.868624
609.50 1.911744
609.60 1.950789
609.70 1.912098
609.80 1.881412
609.90 1.872784
610.00 1.884691
610.10 1.884765
610.20 1.799219
610.30 1.668221
610.40 1.536108
610.50 1.527249
610.60 1.655999
610.70 1.803213
610.80 1.913482
610.90 1.897823
611.00 1.861723
611.10 1.827536
611.20 1.787062
611.30 1.803761
611.40 1.860971
611.50 1.898463
611.60 1.880678
611.70 1.863135
611.80 1.8284
611.90 1.732871
612.00 1.688124
612.10 1.6745
612.20 1.59552
612.30 1.500938
612.40 1.468886
612.50 1.530007
612.60 1.634192
612.70 1.770893
612.80 1.858407
612.90 1.910909
613.00 1.906117
613.10 1.904398
613.20 1.864472
613.30 1.873202
613.40 1.87988
613.50 1.860655
613.60 1.845108
613.70 1.869979
613.80 1.879964
613.90 1.862894
614.00 1.849371
614.10 1.881793
614.20 1.90346
614.30 1.875571
614.40 1.913286
614.50 1.967311
614.60 1.981251
614.70 1.93722
614.80 1.920586
614.90 1.877549
615.00 1.751612
615.10 1.707924
615.20 1.735991
615.30 1.76546
615.40 1.751138
615.50 1.712085
615.60 1.636607
615.70 1.587124
615.80 1.569618
615.90 1.548386
616.00 1.439706
616.10 1.268791
616.20 1.131728
616.30 1.067971
616.40 1.060485
616.50 1.068175
616.60 1.11241
616.70 1.156368
616.80 1.152439
616.90 1.157612
617.00 1.170689
617.10 1.180282
617.20 1.204336
617.30 1.255092
617.40 1.276425
617.50 1.259383
617.60 1.245387
617.70 1.291499
617.80 1.317912
617.90 1.330673
618.00 1.369261
618.10 1.39195
618.20 1.367302
618.30 1.291638
618.40 1.279898
618.50 1.265262
618.60 1.209872
618.70 1.145501
618.80 1.146152
618.90 1.128635
619.00 1.09404
619.10 1.079329
619.20 1.025416
619.30 1.010203
619.40 1.031156
619.50 1.084585
619.60 1.098433
619.70 1.096
619.80 1.128533
619.90 1.130084
620.00 1.116952
620.10 1.114138
620.20 1.149848
620.30 1.203882
620.40 1.213299
620.50 1.212556
620.60 1.246
620.70 1.252018
620.80 1.259318
620.90 1.246483
621.00 1.24874
621.10 1.219912
621.20 1.183868
621.30 1.16376
621.40 1.109262
621.50 1.061153
621.60 1.036282
621.70 1.002829
621.80 0.9869384
621.90 0.9970435
622.00 1.044167
622.10 1.087613
622.20 1.099483
622.30 1.061432
622.40 1.008801
622.50 0.9855267
622.60 0.9902541
622.70 0.9810413
622.80 0.9455916
622.90 0.9726821
623.00 1.035418
623.10 1.026642
623.20 0.969915
623.30 0.9593554
623.40 1.030765
623.50 1.085542
623.60 1.135406
623.70 1.129434
623.80 1.124373
623.90 1.105993
624.00 1.058832
624.10 1.05716
624.20 1.069382
624.30 1.064581
624.40 1.017373
624.50 1.04466
624.60 1.05051
624.70 1.067813
624.80 1.101656
624.90 1.143867
625.00 1.168515
625.10 1.181518
625.20 1.211339
625.30 1.203974
625.40 1.187471
625.50 1.195161
625.60 1.198476
625.70 1.211665
625.80 1.200009
625.90 1.220395
626.00 1.206315
626.10 1.214618
626.20 1.253634
626.30 1.245127
626.40 1.306711
626.50 1.371138
626.60 1.411055
626.70 1.378057
626.80 1.338947
626.90 1.350873
627.00 1.341028
627.10 1.305095
627.20 1.294006
627.30 1.338669
627.40 1.38818
627.50 1.370701
627.60 1.320057
627.70 1.307797
627.80 1.30881
627.90 1.285211
628.00 1.29578
628.10 1.28536
628.20 1.292121
628.30 1.304268
628.40 1.349498
628.50 1.385951
628.60 1.408807
628.70 1.44487
628.80 1.489356
628.90 1.526923
629.00 1.489765
629.10 1.445892
629.20 1.441341
629.30 1.448538
629.40 1.468515
629.50 1.443476
629.60 1.43666
629.70 1.469026
629.80 1.560404
629.90 1.711138
630.00 1.80716
630.10 1.836322
630.20 1.561454
630.30 1.34412
630.40 1.503491
630.50 1.653445
630.60 1.631703
630.70 1.548851
630.80 1.628202
630.90 1.687743
631.00 1.662844
631.10 1.661488
631.20 1.696167
631.30 1.753814
631.40 1.805544
631.50 1.778128
631.60 1.795179
631.70 1.806306
631.80 1.803622
631.90 1.80832
632.00 1.800584
632.10 1.844579
632.20 1.85056
632.30 1.802711
632.40 1.764447
632.50 1.793535
632.60 1.814803
632.70 1.812983
632.80 1.847717
632.90 1.868735
633.00 1.878226
633.10 1.867119
633.20 1.890672
633.30 1.880781
633.40 1.867862
633.50 1.891675
633.60 1.899726
633.70 1.91311
633.80 1.933728
633.90 1.958535
634.00 1.946562
634.10 1.939021
634.20 1.974555
634.30 2.02361
634.40 2.0244
634.50 1.997271
634.60 2.00941
634.70 2.051176
634.80 2.103297
634.90 2.108924
635.00 2.091483
635.10 2.104726
635.20 2.085762
635.30 2.046783
635.40 2.020769
635.50 1.977935
635.60 1.964627
635.70 1.934583
635.80 1.898835
635.90 1.860413
636.00 1.816103
636.10 1.821593
636.20 1.867008
636.30 1.937897
636.40 1.958813
636.50 1.893587
636.60 1.86489
636.70 1.810801
636.80 1.803482
636.90 1.823747
637.00 1.823487
637.10 1.793238
637.20 1.819595
637.30 1.917707
637.40 1.962351
637.50 1.929242
637.60 1.882656
637.70 1.865531
637.80 1.85655
637.90 1.84143
638.00 1.760686
638.10 1.655014
638.20 1.614289
638.30 1.599105
638.40 1.597767
638.50 1.641678
638.60 1.684817
638.70 1.711714
638.80 1.670107
638.90 1.612999
639.00 1.612506
639.10 1.642393
639.20 1.692647
639.30 1.749318
639.40 1.788288
639.50 1.804523
639.60 1.858129
639.70 1.966206
639.80 2.026852
639.90 2.004516
640.00 1.970831
640.10 1.967274
640.20 1.988532
640.30 2.033632
640.40 2.069639
640.50 2.111813
640.60 2.159763
640.70 2.176536
640.80 2.161881
640.90 2.150522
641.00 2.162002
641.10 2.182267
641.20 2.220596
641.30 2.193894
641.40 2.146817
641.50 2.127583
641.60 2.146092
641.70 2.131521
641.80 2.092922
641.90 2.10702
642.00 2.132356
642.10 2.134548
642.20 2.096163
642.30 2.077654
642.40 2.11407
642.50 2.15094
642.60 2.176935
642.70 2.171465
642.80 2.194312
642.90 2.222137
643.00 2.216834
643.10 2.203628
643.20 2.20137
643.30 2.224589
643.40 2.217001
643.50 2.182443
643.60 2.183372
643.70 2.200302
643.80 2.186325
643.90 2.118629
644.00 2.049309
644.10 2.034468
644.20 2.099266
644.30 2.212422
644.40 2.298424
644.50 2.367159
644.60 2.402358
644.70 2.425521
644.80 2.395551
644.90 2.30916
645.00 2.226186
645.10 2.144541
645.20 2.134808
645.30 2.211048
645.40 2.326165
645.50 2.410104
645.60 2.427127
645.70 2.411088
645.80 2.396089
645.90 2.43778
646.00 2.459828
646.10 2.421518
646.20 2.318828
646.30 2.201965
646.40 2.156503
646.50 2.166812
646.60 2.229335
646.70 2.34981
646.80 2.416113
646.90 2.468438
647.00 2.515831
647.10 2.49316
647.20 2.439108
647.30 2.396331
647.40 2.479526
647.50 2.525768
647.60 2.526075
647.70 2.549925
647.80 2.598228
647.90 2.630139
648.00 2.597253
648.10 2.513481
648.20 2.424908
648.30 2.422716
648.40 2.421202
648.50 2.392421
648.60 2.364809
648.70 2.357008
648.80 2.381907
648.90 2.415332
649.00 2.430313
649.10 2.446
649.20 2.448488
649.30 2.385706
649.40 2.289879
649.50 2.218571
649.60 2.200609
649.70 2.226298
649.80 2.298191
649.90 2.356042
650.00 2.363779
650.10 2.360268
650.20 2.396869
650.30 2.494201
650.40 2.560624
650.50 2.581121
650.60 2.604042
650.70 2.640235
650.80 2.67522
650.90 2.677106
651.00 2.656469
651.10 2.645445
651.20 2.660518
651.30 2.682372
651.40 2.612716
651.50 2.535613
651.60 2.556667
651.70 2.63248
651.80 2.661298
651.90 2.640318
652.00 2.642046
652.10 2.675415
652.20 2.704819
652.30 2.751515
652.40 2.779898
652.50 2.758008
652.60 2.764509
652.70 2.797526
652.80 2.809404
652.90 2.790272
653.00 2.761277
653.10 2.775932
653.20 2.805671
653.30 2.820576
653.40 2.841306
653.50 2.876068
653.60 2.907794
653.70 2.899984
653.80 2.901284
653.90 2.943551
654.00 3.008859
654.10 3.038068
654.20 3.010122
654.30 2.942863
654.40 2.892024
654.50 2.852692
654.60 2.807704
654.70 2.744291
654.80 2.692021
654.90 2.698178
655.00 2.705395
655.10 2.688984
655.20 2.682093
655.30 2.654992
655.40 2.634922
655.50 2.615605
655.60 2.593612
655.70 2.593863
655.80 2.609949
655.90 2.648723
656.00 2.680821
656.10 2.707828
656.20 2.664596
656.30 2.578901
656.40 2.485498
656.50 2.435495
656.60 2.431214
656.70 2.448154
656.80 2.492965
656.90 2.527746
657.00 2.549349
657.10 2.533914
657.20 2.473564
657.30 2.384108
657.40 2.320007
657.50 2.313144
657.60 2.382297
657.70 2.477297
657.80 2.512915
657.90 2.47857
658.00 2.431139
658.10 2.432588
658.20 2.445879
658.30 2.469989
658.40 2.519406
658.50 2.563159
658.60 2.58738
658.70 2.608825
658.80 2.634653
658.90 2.648797
659.00 2.65112
659.10 2.636371
659.20 2.639046
659.30 2.601237
659.40 2.518023
659.50 2.448432
659.60 2.41692
659.70 2.452444
659.80 2.502838
659.90 2.548912
660.00 2.557559
660.10 2.534471
660.20 2.496309
660.30 2.508281
660.40 2.583359
660.50 2.614397
660.60 2.576867
660.70 2.526641
660.80 2.516184
660.90 2.488758
661.00 2.439294
661.10 2.44247
661.20 2.489241
661.30 2.541947
661.40 2.567794
661.50 2.568165
661.60 2.520336
661.70 2.490644
661.80 2.501305
661.90 2.522267
662.00 2.497377
662.10 2.454237
662.20 2.43504
662.30 2.424917
662.40 2.389959
662.50 2.344963
662.60 2.306215
662.70 2.26732
662.80 2.229028
662.90 2.242532
663.00 2.286266
663.10 2.307089
663.20 2.304581
663.30 2.338972
663.40 2.380078
663.50 2.375267
663.60 2.322626
663.70 2.238037
663.80 2.165197
663.90 2.164239
664.00 2.24203
664.10 2.283861
664.20 2.301516
664.30 2.352689
664.40 2.38174
664.50 2.38278
664.60 2.364363
664.70 2.35985
664.80 2.359265
664.90 2.323676
665.00 2.253138
665.10 2.156503
665.20 2.04108
665.30 1.951262
665.40 1.926354
665.50 1.968332
665.60 2.043346
665.70 2.047646
665.80 2.011027
665.90 1.997969
666.00 2.011778
666.10 2.049922
666.20 2.055448
666.30 2.042297
666.40 2.076558
666.50 2.111153
666.60 2.105637
666.70 2.123162
666.80 2.172245
666.90 2.211884
667.00 2.215292
667.10 2.198009
667.20 2.202392
667.30 2.21494
667.40 2.20529
667.50 2.158621
667.60 2.134938
667.70 2.158166
667.80 2.170648
667.90 2.138997
668.00 2.083161
668.10 1.995034
668.20 1.892807
668.30 1.805507
668.40 1.750043
668.50 1.753135
668.60 1.785957
668.70 1.829663
668.80 1.871382
668.90 1.883139
669.00 1.887597
669.10 1.881728
669.20 1.822577
669.30 1.79178
669.40 1.821611
669.50 1.880066
669.60 1.918552
669.70 1.892891
669.80 1.88327
669.90 1.913565
670.00 1.961227
670.10 1.981483
670.20 1.968787
670.30 1.984956
670.40 2.011844
670.50 2.029035
670.60 2.018595
670.70 1.989916
670.80 1.982607
670.90 1.974072
671.00 1.986452
671.10 2.026295
671.20 2.039845
671.30 2.019311
671.40 1.976672
671.50 1.90568
671.60 1.816011
671.70 1.718113
671.80 1.651884
671.90 1.595028
672.00 1.550978
672.10 1.552102
672.20 1.590913
672.30 1.644474
672.40 1.660745
672.50 1.674267
672.60 1.681567
672.70 1.673199
672.80 1.688895
672.90 1.707312
673.00 1.726917
673.10 1.731653
673.20 1.71059
673.30 1.70147
673.40 1.720955
673.50 1.731663
673.60 1.713645
673.70 1.750461
673.80 1.805841
673.90 1.830072
674.00 1.827044
674.10 1.813577
674.20 1.792198
674.30 1.786812
674.40 1.822633
674.50 1.884282
674.60 1.922602
674.70 1.863154
674.80 1.766695
674.90 1.701219
675.00 1.664014
675.10 1.648337
675.20 1.63123
675.30 1.655191
675.40 1.686108
675.50 1.694272
675.60 1.695387
675.70 1.692972
675.80 1.716386
675.90 1.761457
676.00 1.757147
676.10 1.730521
676.20 1.724679
676.30 1.749847
676.40 1.789346
676.50 1.798848
676.60 1.809092
676.70 1.831474
676.80 1.847494
676.90 1.843854
677.00 1.815518
677.10 1.807624
677.20 1.83426
677.30 1.830629
677.40 1.798681
677.50 1.797204
677.60 1.84834
677.70 1.896068
677.80 1.897656
677.90 1.883706
678.00 1.858444
678.10 1.820264
678.20 1.784806
678.30 1.749681
678.40 1.689285
678.50 1.626057
678.60 1.604872
678.70 1.594154
678.80 1.625703
678.90 1.668778
679.00 1.695637
679.10 1.677007
679.20 1.65364
679.30 1.681065
679.40 1.686563
679.50 1.673255
679.60 1.665556
679.70 1.665556
679.80 1.681474
679.90 1.687836
680.00 1.693083
680.10 1.67814
680.20 1.67631
680.30 1.733874
680.40 1.795393
680.50 1.791065
680.60 1.742966
680.70 1.70994
680.80 1.676868
680.90 1.655702
681.00 1.660281
681.10 1.690167
681.20 1.748426
681.30 1.750767
681.40 1.733428
681.50 1.754621
681.60 1.744545
681.70 1.699613
681.80 1.663271
681.90 1.673087
682.00 1.691523
682.10 1.680239
682.20 1.686359
682.30 1.710813
682.40 1.696092
682.50 1.665351
682.60 1.689267
682.70 1.740263
682.80 1.799451
682.90 1.805915
683.00 1.797993
683.10 1.816809
683.20 1.776159
683.30 1.74407
683.40 1.758438
683.50 1.797678
683.60 1.823961
683.70 1.799553
683.80 1.755717
683.90 1.722701
684.00 1.733502
684.10 1.758903
684.20 1.780096
684.30 1.799098
684.40 1.81263
684.50 1.801921
684.60 1.774636
684.70 1.744368
684.80 1.734217
684.90 1.750006
685.00 1.772722
685.10 1.743207
685.20 1.685895
685.30 1.657132
685.40 1.66745
685.50 1.672019
685.60 1.672456
685.70 1.681799
685.80 1.674128
685.90 1.652126
686.00 1.639737
686.10 1.668463
686.20 1.670673
686.30 1.672819
686.40 1.709289
686.50 1.762274
686.60 1.774849
686.70 1.749875
686.80 1.71189
686.90 1.696501
687.00 1.69625
687.10 1.671732
687.20 1.673032
687.30 1.685662
687.40 1.730549
687.50 1.788083
687.60 1.807151
687.70 1.806091
687.80 1.809779
687.90 1.852073
688.00 1.910751
688.10 1.906581
688.20 1.847383
688.30 1.816568
688.40 1.806408
688.50 1.786634
688.60 1.729444
688.70 1.729991
688.80 1.810011
688.90 1.830824
689.00 1.850039
689.10 1.864202
689.20 1.82605
689.30 1.80064
689.40 1.821212
689.50 1.863135
689.60 1.889409
689.70 1.882369
689.80 1.910778
689.90 1.951829
690.00 1.911419
690.10 1.839489
690.20 1.78019
690.30 1.75399
690.40 1.781267
690.50 1.818193
690.60 1.886762
690.70 1.977554
690.80 2.018958
690.90 2.017109
691.00 2.024799
691.10 2.033047
691.20 2.032833
691.30 2.042576
691.40 2.055216
691.50 2.088018
691.60 2.1267
691.70 2.099228
691.80 1.975688
691.90 1.85746
692.00 1.797835
692.10 1.793776
692.20 1.873165
692.30 1.994504
692.40 2.111905
692.50 2.180046
692.60 2.160042
692.70 2.154646
692.80 2.185266
692.90 2.202856
693.00 2.226698
693.10 2.24439
693.20 2.273329
693.30 2.305454
693.40 2.323573
693.50 2.325217
693.60 2.329982
693.70 2.365125
693.80 2.386931
693.90 2.369732
694.00 2.334774
694.10 2.349123
694.20 2.404736
694.30 2.441207
694.40 2.488591
694.50 2.536606
694.60 2.570664
694.70 2.611416
694.80 2.642064
694.90 2.653163
695.00 2.659943
695.10 2.630976
695.20 2.582486
695.30 2.551801
695.40 2.508095
695.50 2.474744
695.60 2.480019
695.70 2.459113
695.80 2.437083
695.90 2.437994
696.00 2.45055
696.10 2.466079
696.20 2.455621
696.30 2.43804
696.40 2.482108
696.50 2.541316
696.60 2.575539
696.70 2.587919
696.80 2.575753
696.90 2.56914
697.00 2.564181
697.10 2.559927
697.20 2.568054
697.30 2.546674
697.40 2.505485
697.50 2.531387
697.60 2.5711
697.70 2.608184
697.80 2.644405
697.90 2.651278
698.00 2.665116
698.10 2.666332
698.20 2.656079
698.30 2.651361
698.40 2.660054
698.50 2.697807
698.60 2.720226
698.70 2.722409
698.80 2.716224
698.90 2.72057
699.00 2.736832
699.10 2.687971
699.20 2.61957
699.30 2.593548
699.40 2.599212
699.50 2.626443
699.60 2.669908
699.70 2.725641
699.80 2.76776
699.90 2.747466
700.00 2.712881
700.10 2.734316
700.20 2.76958
700.30 2.795956
700.40 2.790755
700.50 2.7787
700.60 2.770053
700.70 2.730852
700.80 2.738402
700.90 2.801082
701.00 2.823353
701.10 2.790095
701.20 2.793616
701.30 2.875158
701.40 2.949373
701.50 2.960035
701.60 2.937866
701.70 2.936613
701.80 2.936427
701.90 2.940587
702.00 2.971561
702.10 3.00585
702.20 3.009314
702.30 2.974858
702.40 2.935516
702.50 2.894309
702.60 2.867868
702.70 2.878901
702.80 2.918809
702.90 3.012918
703.00 3.142996
703.10 3.238415
703.20 3.261688
703.30 3.214276
703.40 3.168081
703.50 3.19416
703.60 3.285715
703.70 3.365892
703.80 3.386436
703.90 3.391395
704.00 3.381922
704.10 3.406766
704.20 3.48177
704.30 3.560258
704.40 3.608246
704.50 3.626746
704.60 3.648033
704.70 3.656856
704.80 3.673591
704.90 3.706032
705.00 3.691516
705.10 3.645646
705.20 3.616585
705.30 3.549085
705.40 3.3843
705.50 3.106079
705.60 2.779099
705.70 2.548903
705.80 2.463079
705.90 2.489102
706.00 2.545225
706.10 2.538083
706.20 2.468289
706.30 2.429254
706.40 2.444857
706.50 2.488675
706.60 2.538083
706.70 2.579737
706.80 2.638284
706.90 2.657129
707.00 2.656952
707.10 2.684898
707.20 2.732291
707.30 2.77454
707.40 2.790244
707.50 2.788024
707.60 2.791219
707.70 2.80059
707.80 2.804881
707.90 2.819415
708.00 2.831517
708.10 2.841306
708.20 2.854968
708.30 2.854438
708.40 2.856036
708.50 2.884251
708.60 2.88725
708.70 2.794581
708.80 2.572511
708.90 2.269131
709.00 2.037291
709.10 1.947362
709.20 1.982997
709.30 2.072936
709.40 2.131493
709.50 2.141105
709.60 2.123088
709.70 2.10416
709.80 2.101754
709.90 2.127034
710.00 2.171447
710.10 2.202922
710.20 2.217967
710.30 2.198352
710.40 2.196467
710.50 2.242393
710.60 2.286916
710.70 2.301887
710.80 2.320472
710.90 2.384043
711.00 2.44312
711.10 2.485434
711.20 2.521366
711.30 2.540219
711.40 2.558042
711.50 2.562017
711.60 2.547575
711.70 2.52119
711.80 2.507129
711.90 2.529381
712.00 2.575102
712.10 2.642492
712.20 2.700083
712.30 2.714144
712.40 2.671765
712.50 2.538575
712.60 2.297597
712.70 2.000207
712.80 1.761011
712.90 1.689684
713.00 1.747452
713.10 1.834808
713.20 1.868112
713.30 1.829728
713.40 1.795653
713.50 1.782409
713.60 1.776223
713.70 1.800278
713.80 1.836489
713.90 1.845963
714.00 1.848006
714.10 1.85916
714.20 1.893059
714.30 1.936811
714.40 1.971091
714.50 1.993854
714.60 1.991021
714.70 1.967116
714.80 1.943758
714.90 1.93161
715.00 1.941966
715.10 1.973849
715.20 2.040932
715.30 2.111358
715.40 2.155333
715.50 2.188396
715.60 2.212459
715.70 2.247723
715.80 2.276403
715.90 2.249424
716.00 2.176796
716.10 2.111479
716.20 2.085288
716.30 2.093322
716.40 2.117645
716.50 2.148907
716.60 2.169858
716.70 2.181635
716.80 2.185823
716.90 2.191043
717.00 2.215654
717.10 2.244529
717.20 2.262908
717.30 2.269289
717.40 2.283786
717.50 2.276375
717.60 2.248485
717.70 2.244427
717.80 2.258386
717.90 2.27475
718.00 2.278279
718.10 2.303699
718.20 2.373521
718.30 2.426626
718.40 2.44625
718.50 2.482805
718.60 2.527486
718.70 2.52913
718.80 2.503293
718.90 2.495612
719.00 2.503692
719.10 2.512023
719.20 2.549804
719.30 2.5754
719.40 2.561664
719.50 2.556491
719.60 2.548978
719.70 2.550974
719.80 2.505503
719.90 2.406509
720.00 2.321901
720.10 2.275298
720.20 2.237359
720.30 2.207231
720.40 2.21376
720.50 2.240517
720.60 2.287083
720.70 2.333808
720.80 2.356757
720.90 2.35216
721.00 2.336734
721.10 2.334885
721.20 2.363816
721.30 2.404114
721.40 2.426375
721.50 2.448006
721.60 2.484003
721.70 2.49057
721.80 2.487021
721.90 2.51336
722.00 2.546321
722.10 2.578985
722.20 2.608556
722.30 2.621474
722.40 2.641953
722.50 2.663797
722.60 2.688585
722.70 2.714347
722.80 2.717626
722.90 2.707383
723.00 2.713243
723.10 2.720236
723.20 2.69203
723.30 2.663295
723.40 2.645464
723.50 2.668217
723.60 2.708051
723.70 2.728372
723.80 2.764453
723.90 2.840043
724.00 2.928894
724.10 2.909252
724.20 2.729505
724.30 2.558525
724.40 2.611156
724.50 2.773815
724.60 2.839867
724.70 2.846274
724.80 2.852497
724.90 2.867162
725.00 2.904534
725.10 2.963853
725.20 2.996665
725.30 2.975369
725.40 2.928691
725.50 2.941349
725.60 3.019149
725.70 3.087578
725.80 3.085154
725.90 3.014041
726.00 2.995281
726.10 3.051943
726.20 3.110658
726.30 3.158376
726.40 3.194578
726.50 3.201673
726.60 3.212781
726.70 3.203038
726.80 3.181362
726.90 3.193845
727.00 3.185941
727.10 3.129251
727.20 3.069255
727.30 3.033573
727.40 3.036414
727.50 3.1264
727.60 3.216236
727.70 3.272424
727.80 3.305859
727.90 3.243068
728.00 3.17305
728.10 3.132446
728.20 3.132854
728.30 3.19651
728.40 3.296367
728.50 3.410992
728.60 3.453593
728.70 3.388581
728.80 3.321527
728.90 3.313075
729.00 3.363636
729.10 3.432019
729.20 3.420168
729.30 3.360153
729.40 3.334771
729.50 3.360032
729.60 3.408623
729.70 3.450184
729.80 3.477703
729.90 3.455952
730.00 3.403636
730.10 3.383901
730.20 3.424625
730.30 3.487603
730.40 3.515122
730.50 3.495757
730.60 3.469586
730.70 3.490296
730.80 3.505091
730.90 3.494801
731.00 3.507431
731.10 3.535748
731.20 3.552568
731.30 3.56987
731.40 3.614831
731.50 3.659986
731.60 3.713648
731.70 3.720632
731.80 3.648998
731.90 3.618629
732.00 3.601038
732.10 3.575443
732.20 3.633025
732.30 3.703915
732.40 3.726418
732.50 3.685488
732.60 3.561939
732.70 3.443953
732.80 3.421477
732.90 3.490398
733.00 3.597826
733.10 3.699392
733.20 3.731814
733.30 3.709162
733.40 3.700544
733.50 3.726464
733.60 3.783897
733.70 3.810914
733.80 3.812901
733.90 3.831801
734.00 3.862951
734.10 3.916882
734.20 3.963421
734.30 3.912044
734.40 3.7694
734.50 3.691887
734.60 3.678792
734.70 3.686845
734.80 3.726028
734.90 3.775752
735.00 3.830297
735.10 3.850014
735.20 3.85828
735.30 3.891435
735.40 3.917644
735.50 3.916762
735.60 3.85814
735.70 3.771694
735.80 3.70723
735.90 3.706998
736.00 3.755933
736.10 3.818855
736.20 3.862793
736.30 3.834067
736.40 3.813496
736.50 3.825458
736.60 3.828523
736.70 3.853283
736.80 3.919632
736.90 4.016351
737.00 4.075789
737.10 4.121966
737.20 4.145853
737.30 4.088002
737.40 4.041055
737.50 4.007806
737.60 3.97387
737.70 3.991841
737.80 3.991832
737.90 3.98026
738.00 4.036309
738.10 4.09664
738.20 4.104822
738.30 4.069093
738.40 4.030077
738.50 4.037915
738.60 4.070161
738.70 4.098989
738.80 4.112836
738.90 4.118846
739.00 4.130631
739.10 4.146475
739.20 4.147404
739.30 4.124223
739.40 4.114174
739.50 4.102054
739.60 4.092061
739.70 4.106001
739.80 4.090138
739.90 4.09273
740.00 4.093862
740.10 4.051875
740.20 4.0862
740.30 4.133296
740.40 4.094085
740.50 4.077034
740.60 4.073533
740.70 4.075269
740.80 4.081482
740.90 4.063447
741.00 4.079328
741.10 4.114917
741.20 4.133464
741.30 4.137365
741.40 4.142342
741.50 4.161586
741.60 4.168115
741.70 4.146382
741.80 4.127111
741.90 4.104376
742.00 4.090287
742.10 4.106391
742.20 4.128876
742.30 4.128375
742.40 4.119189
742.50 4.136371
742.60 4.145305
742.70 4.157304
742.80 4.18772
742.90 4.20766
743.00 4.235913
743.10 4.281188
743.20 4.285674
743.30 4.257757
743.40 4.24011
743.50 4.200584
743.60 4.169889
743.70 4.188891
743.80 4.219149
743.90 4.253503
744.00 4.287652
744.10 4.285321
744.20 4.254552
744.30 4.207456
744.40 4.167641
744.50 4.172071
744.60 4.176882
744.70 4.154825
744.80 4.124594
744.90 4.110375
745.00 4.141404
745.10 4.186039
745.20 4.211709
745.30 4.22343
745.40 4.225334
745.50 4.233033
745.60 4.249091
745.70 4.252314
745.80 4.261741
745.90 4.301769
746.00 4.32977
746.10 4.311205
746.20 4.252165
746.30 4.199943
746.40 4.187024
746.50 4.19359
746.60 4.218731
746.70 4.247373
746.80 4.265057
746.90 4.295844
747.00 4.31661
747.10 4.32313
747.20 4.337303
747.30 4.348336
747.40 4.366139
747.50 4.356425
747.60 4.303375
747.70 4.276591
747.80 4.305279
747.90 4.34385
748.00 4.342624
748.10 4.309459
748.20 4.296085
748.30 4.317511
748.40 4.367969
748.50 4.391401
748.60 4.33147
748.70 4.240686
748.80 4.219548
748.90 4.283352
749.00 4.334144
749.10 4.291627
749.20 4.231418
749.30 4.234835
749.40 4.25575
749.50 4.255388
749.60 4.231352
749.70 4.213316
749.80 4.232012
749.90 4.285888
750.00 4.377554
750.10 4.441516
750.20 4.423182
750.30 4.387891
750.40 4.371564
750.50 4.360837
750.60 4.35988
750.70 4.351038
750.80 4.336996
750.90 4.348066
751.00 4.375037
751.10 4.390092
751.20 4.388755
751.30 4.386655
751.40 4.38828
751.50 4.422365
751.60 4.486662
751.70 4.530786
751.80 4.54898
751.90 4.518592
752.00 4.434643
752.10 4.377275
752.20 4.41006
752.30 4.485296
752.40 4.539181
752.50 4.539934
752.60 4.479631
752.70 4.378454
752.80 4.300552
752.90 4.295388
753.00 4.326371
753.10 4.372074
753.20 4.418047
753.30 4.461001
753.40 4.455122
753.50 4.407208
753.60 4.40041
753.70 4.43989
753.80 4.500546
753.90 4.562428
754.00 4.602261
754.10 4.631154
754.20 4.625897
754.30 4.570926
754.40 4.540528
754.50 4.558249
754.60 4.580334
754.70 4.592927
754.80 4.578003
754.90 4.542488
755.00 4.526421
755.10 4.53854
755.20 4.558416
755.30 4.571158
755.40 4.576553
755.50 4.555592
755.60 4.540343
755.70 4.556428
755.80 4.567954
755.90 4.564536
756.00 4.566291
756.10 4.596791
756.20 4.630867
756.30 4.627039
756.40 4.604657
756.50 4.565614
756.60 4.515359
756.70 4.483299
756.80 4.460583
756.90 4.451908
757.00 4.451295
757.10 4.449475
757.20 4.498642
757.30 4.593085
757.40 4.675817
757.50 4.708193
757.60 4.648048
757.70 4.577492
757.80 4.565678
757.90 4.580418
758.00 4.591572
758.10 4.59837
758.20 4.622573
758.30 4.647202
758.40 4.643766
758.50 4.611846
758.60 4.585562
758.70 4.608465
758.80 4.594803
758.90 4.458697
759.00 4.253512
759.10 4.058329
759.20 3.93764
759.30 3.932829
759.40 4.003645
759.50 4.061914
759.60 4.075594
759.70 4.07343
759.80 4.110264
759.90 4.196887
760.00 4.293922
760.10 4.311084
760.20 4.20011
760.30 4.090984
760.40 4.063568
760.50 4.084724
760.60 4.172656
760.70 4.204382
760.80 4.121724
760.90 4.11241
761.00 4.142203
761.10 4.119978
761.20 4.121641
761.30 4.148063
761.40 4.198856
761.50 4.253976
761.60 4.251162
761.70 4.248497
761.80 4.292825
761.90 4.371981
762.00 4.442575
762.10 4.438813
762.20 4.366344
762.30 4.287392
762.40 4.278356
762.50 4.313676
762.60 4.307091
762.70 4.267675
762.80 4.17796
762.90 4.041268
763.00 3.931947
763.10 3.829767
763.20 3.776495
763.30 3.81762
763.40 3.89215
763.50 3.929978
763.60 3.880857
763.70 3.833947
763.80 3.840457
763.90 3.829712
764.00 3.838089
764.10 3.867168
764.20 3.863833
764.30 3.86127
764.40 3.881536
764.50 3.895736
764.60 3.887275
764.70 3.876223
764.80 3.914876
764.90 3.965892
765.00 3.948144
765.10 3.870084
765.20 3.803753
765.30 3.842965
765.40 3.919975
765.50 3.904549
765.60 3.846011
765.70 3.828876
765.80 3.887237
765.90 3.984318
766.00 4.001909
766.10 3.906899
766.20 3.76653
766.30 3.609621
766.40 3.378133
766.50 3.014032
766.60 2.599361
766.70 2.365961
766.80 2.433443
766.90 2.750197
767.00 3.12496
767.10 3.342804
767.20 3.365187
767.30 3.287359
767.40 3.237764
767.50 3.255215
767.60 3.316614
767.70 3.381421
767.80 3.409859
767.90 3.412924
768.00 3.417874
768.10 3.447909
768.20 3.502899
768.30 3.526972
768.40 3.517211
768.50 3.502574
768.60 3.502825
768.70 3.526526
768.80 3.546745
768.90 3.565905
769.00 3.585956
769.10 3.586792
769.20 3.574207
769.30 3.585974
769.40 3.624982
769.50 3.628938
769.60 3.559952
769.70 3.448299
769.80 3.258317
769.90 2.972824
770.00 2.710215
770.10 2.577657
770.20 2.660927
770.30 2.929471
770.40 3.21137
770.50 3.40306
770.60 3.465332
770.70 3.439671
770.80 3.401138
770.90 3.373973
771.00 3.404249
771.10 3.50732
771.20 3.617543
771.30 3.680278
771.40 3.651655
771.50 3.488959
771.60 3.352611
771.70 3.425647
771.80 3.542092
771.90 3.549346
772.00 3.539101
772.10 3.541423
772.20 3.567038
772.30 3.608692
772.40 3.618963
772.50 3.644885
772.60 3.701082
772.70 3.72183
772.80 3.712524
772.90 3.719035
773.00 3.737916
773.10 3.75923
773.20 3.774006
773.30 3.795841
773.40 3.830854
773.50 3.856943
773.60 3.877077
773.70 3.874644
773.80 3.839157
773.90 3.812874
774.00 3.81501
774.10 3.845277
774.20 3.900676
774.30 3.902395
774.40 3.819867
774.50 3.725294
774.60 3.664917
774.70 3.652258
774.80 3.638959
774.90 3.586142
775.00 3.550042
775.10 3.564187
775.20 3.518019
775.30 3.427077
775.40 3.327332
775.50 3.239241
775.60 3.325678
775.70 3.469056
775.80 3.500132
775.90 3.511044
776.00 3.57391
776.10 3.641049
776.20 3.631501
776.30 3.581972
776.40 3.551695
776.50 3.493686
776.60 3.455785
776.70 3.493538
776.80 3.542845
776.90 3.581582
777.00 3.627675
777.10 3.670127
777.20 3.700608
777.30 3.72744
777.40 3.738649
777.50 3.728629
777.60 3.701667
777.70 3.671864
777.80 3.678086
777.90 3.724077
778.00 3.758199
778.10 3.758515
778.20 3.723511
778.30 3.650029
778.40 3.565134
778.50 3.505518
778.60 3.478288
778.70 3.464208
778.80 3.501181
778.90 3.574551
779.00 3.604317
779.10 3.626412
779.20 3.653485
779.30 3.690458
779.40 3.79273
779.50 3.886569
779.60 3.876799
779.70 3.742401
779.80 3.571793
779.90 3.494076
780.00 3.49429
780.10 3.546299
780.20 3.591092
780.30 3.609063
780.40 3.686371
780.50 3.784306
780.60 3.841107
780.70 3.884284
780.80 3.916102
780.90 3.977668
781.00 4.067087
781.10 4.042541
781.20 3.911115
781.30 3.848649
781.40 3.874059
781.50 3.922929
781.60 3.959168
781.70 3.94038
781.80 3.919641
781.90 3.954701
782.00 3.989371
782.10 3.982767
782.20 3.974688
782.30 3.960691
782.40 3.903676
782.50 3.828616
782.60 3.764106
782.70 3.745884
782.80 3.761709
782.90 3.753138
783.00 3.709348
783.10 3.644216
783.20 3.589708
783.30 3.585566
783.40 3.616762
783.50 3.670712
783.60 3.724449
783.70 3.749525
783.80 3.755329
783.90 3.732418
784.00 3.723947
784.10 3.774304
784.20 3.838637
784.30 3.877188
784.40 3.858902
784.50 3.814889
784.60 3.810914
784.70 3.854239
784.80 3.895959
784.90 3.883736
785.00 3.850683
785.10 3.866453
785.20 3.950623
785.30 4.074796
785.40 4.169536
785.50 4.134913
785.60 3.984012
785.70 3.897482
785.80 3.918183
785.90 3.940853
786.00 3.956698
786.10 3.960924
786.20 3.927489
786.30 3.876288
786.40 3.818586
786.50 3.798887
786.60 3.846921
786.70 3.922316
786.80 3.97791
786.90 4.000896
787.00 4.001472
787.10 3.994962
787.20 3.994126
787.30 3.965057
787.40 3.893395
787.50 3.828588
787.60 3.83938
787.70 3.926505
787.80 4.016118
787.90 4.084362
788.00 4.109075
788.10 4.096296
788.20 4.105954
788.30 4.11735
788.40 4.105305
788.50 4.115567
788.60 4.127371
788.70 4.112066
788.80 4.113087
788.90 4.145379
789.00 4.187274
789.10 4.23152
789.20 4.244754
789.30 4.204456
789.40 4.155345
789.50 4.131374
789.60 4.12451
789.70 4.132712
789.80 4.141795
789.90 4.149521
790.00 4.159115
790.10 4.150664
790.20 4.125049
790.30 4.101079
790.40 4.109651
790.50 4.13899
790.60 4.155159
790.70 4.136045
790.80 4.062155
790.90 4.003636
791.00 3.992268
791.10 3.963793
791.20 3.959289
791.30 4.049367
791.40 4.173055
791.50 4.202821
791.60 4.097448
791.70 3.959874
791.80 3.940417
791.90 4.01336
792.00 4.096695
792.10 4.154073
792.20 4.158288
792.30 4.148258
792.40 4.128792
792.50 4.08465
792.60 4.055988
792.70 4.053519
792.80 4.068972
792.90 4.100939
793.00 4.140931
793.10 4.168681
793.20 4.211384
793.30 4.264201
793.40 4.258017
793.50 4.231371
793.60 4.213836
793.70 4.174012
793.80 4.155094
793.90 4.153775
794.00 4.149568
794.10 4.164586
794.20 4.188937
794.30 4.211682
794.40 4.235708
794.50 4.234436
794.60 4.201902
794.70 4.158335
794.80 4.116236
794.90 4.093407
795.00 4.077108
795.10 4.091215
795.20 4.151621
795.30 4.222325
795.40 4.291822
795.50 4.340692
795.60 4.341704
795.70 4.319378
795.80 4.324216
795.90 4.32951
796.00 4.309422
796.10 4.288107
796.20 4.258564
796.30 4.280649
796.40 4.388624
796.50 4.510558
796.60 4.583101
796.70 4.523969
796.80 4.349106
796.90 4.232096
797.00 4.239674
797.10 4.3075
797.20 4.378028
797.30 4.418353
797.40 4.428152
797.50 4.406707
797.60 4.378046
797.70 4.397782
797.80 4.444088
797.90 4.483058
798.00 4.511533
798.10 4.496339
798.20 4.429163
798.30 4.335473
798.40 4.273842
798.50 4.291916
798.60 4.351364
798.70 4.368991
798.80 4.344333
798.90 4.335853
799.00 4.319991
799.10 4.307332
799.20 4.366149
799.30 4.495141
799.40 4.645188
799.50 4.689758
799.60 4.550586
799.70 4.334507
799.80 4.21705
799.90 4.220347
800.00 4.24988
800.10 4.31414
800.20 4.411397
800.30 4.451852
800.40 4.444943
800.50 4.440457
800.60 4.431272
800.70 4.447032
800.80 4.466972
800.90 4.447748
801.00 4.43273
801.10 4.438544
801.20 4.469471
801.30 4.547057
801.40 4.602939
801.50 4.570944
801.60 4.500946
801.70 4.466601
801.80 4.468226
801.90 4.481572
802.00 4.515527
802.10 4.55693
802.20 4.544373
802.30 4.490033
802.40 4.468421
802.50 4.479835
802.60 4.502227
802.70 4.545924
802.80 4.561573
802.90 4.523653
803.00 4.499497
803.10 4.525771
803.20 4.583798
803.30 4.610229
803.40 4.611261
803.50 4.622712
803.60 4.609505
803.70 4.590569
803.80 4.588172
803.90 4.579517
804.00 4.587977
804.10 4.607518
804.20 4.596215
804.30 4.595026
804.40 4.627913
804.50 4.645624
804.60 4.63668
804.70 4.604342
804.80 4.556679
804.90 4.539971
805.00 4.565418
805.10 4.609895
805.20 4.674489
805.30 4.745425
805.40 4.777978
805.50 4.752503
805.60 4.69246
805.70 4.679987
805.80 4.73104
805.90 4.776779
806.00 4.811198
806.10 4.828445
806.20 4.851404
806.30 4.877751
806.40 4.813
806.50 4.70875
806.60 4.659323
806.70 4.65544
806.80 4.690166
806.90 4.721548
807.00 4.716078
807.10 4.677767
807.20 4.650555
807.30 4.694206
807.40 4.7528
807.50 4.758929
807.60 4.755196
807.70 4.76426
807.80 4.78186
807.90 4.828566
808.00 4.852453
808.10 4.824414
808.20 4.815331
808.30 4.84142
808.40 4.872857
808.50 4.890522
808.60 4.866412
808.70 4.823885
808.80 4.815991
808.90 4.830581
809.00 4.831111
809.10 4.839275
809.20 4.876711
809.30 4.897924
809.40 4.876805
809.50 4.858174
809.60 4.840249
809.70 4.806545
809.80 4.804298
809.90 4.821498
810.00 4.824516
810.10 4.850744
810.20 4.878207
810.30 4.867182
810.40 4.851645
810.50 4.836405
810.60 4.822213
810.70 4.824972
810.80 4.83021
810.90 4.838949
811.00 4.849946
811.10 4.85393
811.20 4.864759
811.30 4.886166
811.40 4.9041
811.50 4.89811
811.60 4.862762
811.70 4.81104
811.80 4.738321
811.90 4.687695
812.00 4.731272
812.10 4.825371
812.20 4.89276
812.30 4.92612
812.40 4.918505
812.50 4.910118
812.60 4.942521
812.70 4.963233
812.80 4.964746
812.90 4.963734
813.00 4.948187
813.10 4.945419
813.20 4.955802
813.30 4.952533
813.40 4.929696
813.50 4.910907
813.60 4.928089
813.70 4.968294
813.80 4.999211
813.90 5.019328
814.00 5.009836
814.10 4.962146
814.20 4.93928
814.30 4.942484
814.40 4.92742
814.50 4.909097
814.60 4.907062
814.70 4.920761
814.80 4.929055
814.90 4.915375
815.00 4.877575
815.10 4.84768
815.20 4.858917
815.30 4.888404
815.40 4.914483
815.50 4.932482
815.60 4.924356
815.70 4.896113
815.80 4.888841
815.90 4.915338
816.00 4.932427
816.10 4.910481
816.20 4.864341
816.30 4.812267
816.40 4.776427
816.50 4.784971
816.60 4.841104
816.70 4.911028
816.80 4.970885
816.90 5.015074
817.00 5.015669
817.10 4.971312
817.20 4.929761
817.30 4.931572
817.40 4.959388
817.50 4.975947
817.60 4.977275
817.70 4.938175
817.80 4.86865
817.90 4.824238
818.00 4.795745
818.10 4.728457
818.20 4.571186
818.30 4.261397
818.40 3.850329
818.50 3.559329
818.60 3.553004
818.70 3.822041
818.80 4.190841
818.90 4.47273
819.00 4.635444
819.10 4.699936
819.20 4.67395
819.30 4.538689
819.40 4.233201
819.50 3.782161
819.60 3.382247
819.70 3.235851
819.80 3.41154
819.90 3.800949
820.00 4.175219
820.10 4.410412
820.20 4.548208
820.30 4.656611
820.40 4.733204
820.50 4.749875
820.60 4.713923
820.70 4.670727
820.80 4.665109
820.90 4.69064
821.00 4.721548
821.10 4.743996
821.20 4.754759
821.30 4.767762
821.40 4.781888
821.50 4.777514
821.60 4.770743
821.70 4.76648
821.80 4.756858
821.90 4.769377
822.00 4.783838
822.10 4.770492
822.20 4.744571
822.30 4.726033
822.40 4.751462
822.50 4.822501
822.60 4.876637
822.70 4.884922
822.80 4.87347
822.90 4.844698
823.00 4.821684
823.10 4.857979
823.20 4.911744
823.30 4.91452
823.40 4.875012
823.50 4.815703
823.60 4.772517
823.70 4.78876
823.80 4.869022
823.90 4.958588
824.00 4.978399
824.10 4.96053
824.20 4.98008
824.30 4.985494
824.40 4.931015
824.50 4.895639
824.60 4.923158
824.70 4.98738
824.80 5.088686
824.90 5.183176
825.00 5.218839
825.10 5.22157
825.20 5.196633
825.30 5.124154
825.40 5.040921
825.50 4.984733
825.60 4.926065
825.70 4.847057
825.80 4.79058
825.90 4.793432
826.00 4.858499
826.10 4.946311
826.20 5.005248
826.30 5.028504
826.40 5.041646
826.50 5.05501
826.60 5.073009
826.70 5.104261
826.80 5.140389
826.90 5.149574
827.00 5.117802
827.10 5.070975
827.20 5.017062
827.30 4.946246
827.40 4.872476
827.50 4.813047
827.60 4.769916
827.70 4.750886
827.80 4.789958
827.90 4.87777
828.00 4.959146
828.10 4.98243
828.20 4.903626
828.30 4.803212
828.40 4.792736
828.50 4.840918
828.60 4.897543
828.70 4.911892
828.80 4.862195
828.90 4.813307
829.00 4.762366
829.10 4.669724
829.20 4.577687
829.30 4.537426
829.40 4.554775
829.50 4.629102
829.60 4.731857
829.70 4.813781
829.80 4.885906
829.90 4.989915
830.00 4.959286
830.10 4.883162
830.20 4.807038
830.30 4.750385
830.40 4.693732
830.50 4.702068
830.60 4.710403
830.70 4.70431
830.80 4.698218
830.90 4.715037
831.00 4.731857
831.10 4.801224
831.20 4.870591
831.30 4.838002
831.40 4.805413
831.50 4.788709
831.60 4.772006
831.70 4.784502
831.80 4.796998
831.90 4.792554
832.00 4.78811
832.10 4.764423
832.20 4.740735
832.30 4.736849
832.40 4.732962
832.50 4.745978
832.60 4.758994
832.70 4.683837
832.80 4.608679
832.90 4.570953
833.00 4.533228
833.10 4.60026
833.20 4.667291
833.30 4.706395
833.40 4.7455
833.50 4.706456
833.60 4.667412
833.70 4.663465
833.80 4.659517
833.90 4.687821
834.00 4.716124
834.10 4.751774
834.20 4.787423
834.30 4.875476
834.40 4.96353
834.50 5.004956
834.60 5.046382
834.70 4.849054
834.80 4.651726
834.90 4.600339
835.00 4.548951
835.10 4.661914
835.20 4.774876
835.30 4.78473
835.40 4.794584
835.50 4.73624
835.60 4.677897
835.70 4.698265
835.80 4.718631
835.90 4.750004
836.00 4.781377
836.10 4.772131
836.20 4.762886
836.30 4.725384
836.40 4.687881
836.50 4.641249
836.60 4.594618
836.70 4.61955
836.80 4.644482
836.90 4.704478
837.00 4.764474
837.10 4.801637
837.20 4.8388
837.30 4.8162
837.40 4.793599
837.50 4.738785
837.60 4.683971
837.70 4.635036
837.80 4.586101
837.90 4.595542
838.00 4.604982
838.10 4.622252
838.20 4.639522
838.30 4.572653
838.40 4.505784
838.50 4.45704
838.60 4.408295
838.70 4.39403
838.80 4.379764
838.90 4.35838
839.00 4.336996
839.10 4.415186
839.20 4.493376
839.30 4.597315
839.40 4.701255
839.50 4.683864
839.60 4.666474
839.70 4.679569
839.80 4.692664
839.90 4.723048
840.00 4.753431
840.10 4.657372
840.20 4.698237
840.30 4.739101
840.40 4.751209
840.50 4.757427
840.60 4.768423
840.70 4.784195
840.80 4.79676
840.90 4.794711
841.00 4.792662
841.10 4.745959
841.20 4.691375
841.30 4.629806
841.40 4.56204
841.50 4.519358
841.60 4.571041
841.70 4.622723
841.80 4.656748
841.90 4.688365
842.00 4.703984
842.10 4.706514
842.20 4.705256
842.30 4.691317
842.40 4.677378
842.50 4.646048
842.60 4.612786
842.70 4.560993
842.80 4.495783
842.90 4.461213
843.00 4.518567
843.10 4.575919
843.20 4.616281
843.30 4.655365
843.40 4.56072
843.50 4.380577
843.60 4.215253
843.70 4.088037
843.80 3.96082
843.90 4.1173
844.00 4.2856
844.10 4.407285
844.20 4.501591
844.30 4.568998
844.40 4.576531
844.50 4.584065
844.60 4.566165
844.70 4.547747
844.80 4.536787
844.90 4.529668
845.00 4.527469
845.10 4.535259
845.20 4.543124
845.30 4.558472
845.40 4.57382
845.50 4.581246
845.60 4.585113
845.70 4.586871
845.80 4.584882
845.90 4.582346
846.00 4.56671
846.10 4.551073
846.20 4.545995
846.30 4.545022
846.40 4.536796
846.50 4.517224
846.60 4.49523
846.70 4.441043
846.80 4.386856
846.90 4.326273
847.00 4.263557
847.10 4.253396
847.20 4.315809
847.30 4.376235
847.40 4.418769
847.50 4.461304
847.60 4.480275
847.70 4.492209
847.80 4.504402
847.90 4.516911
848.00 4.527722
848.10 4.527156
848.20 4.52659
848.30 4.522444
848.40 4.517405
848.50 4.526632
848.60 4.551315
848.70 4.572929
848.80 4.578425
848.90 4.583921
849.00 4.603039
849.10 4.62475
849.20 4.629493
849.30 4.617932
849.40 4.600792
849.50 4.559872
849.60 4.518951
849.70 4.370082
849.80 4.205082
849.90 4.079303
850.00 3.986934
850.10 3.951081
850.20 4.115603
850.30 4.280125
850.40 4.389563
850.50 4.492881
850.60 4.53092
850.70 4.521689
850.80 4.516549
850.90 4.523687
851.00 4.530825
851.10 4.546123
851.20 4.562036
851.30 4.53075
851.40 4.46929
851.50 4.406636
851.60 4.341058
851.70 4.275481
851.80 4.285052
851.90 4.297753
852.00 4.324664
852.10 4.359568
852.20 4.399754
852.30 4.451162
852.40 4.502571
852.50 4.520733
852.60 4.538895
852.70 4.53868
852.80 4.529815
852.90 4.527376
853.00 4.536871
853.10 4.54551
853.20 4.526459
853.30 4.507409
853.40 4.506576
853.50 4.513186
853.60 4.510144
853.70 4.49201
853.80 4.467803
853.90 4.36292
854.00 4.258037
854.10 4.051366
854.20 3.810763
854.30 3.603455
854.40 3.442123
854.50 3.318913
854.60 3.538803
854.70 3.758693
854.80 3.945713
854.90 4.123462
855.00 4.258971
855.10 4.344895
855.20 4.425089
855.30 4.470085
855.40 4.51508
855.50 4.533096
855.60 4.54519
855.70 4.5562
855.80 4.566128
855.90 4.572405
856.00 4.562054
856.10 4.551703
856.20 4.537393
856.30 4.522385
856.40 4.528777
856.50 4.554145
856.60 4.5769
856.70 4.589826
856.80 4.602752
856.90 4.610944
857.00 4.61855
857.10 4.617882
857.20 4.610972
857.30 4.605006
857.40 4.601867
857.50 4.598729
857.60 4.600378
857.70 4.602387
857.80 4.604673
857.90 4.607135
858.00 4.610861
858.10 4.617683
858.20 4.624504
858.30 4.60734
858.40 4.589434
858.50 4.585248
858.60 4.58845
858.70 4.597642
858.80 4.61899
858.90 4.640122
859.00 4.639746
859.10 4.63937
859.20 4.633673
859.30 4.625587
859.40 4.616576
859.50 4.605991
859.60 4.595825
859.70 4.593587
859.80 4.591349
859.90 4.583766
860.00 4.574207
860.10 4.57289
860.20 4.583435
860.30 4.593675
860.40 4.600849
860.50 4.608023
860.60 4.612416
860.70 4.615979
860.80 4.616021
860.90 4.611762
861.00 4.605785
861.10 4.588316
861.20 4.570846
861.30 4.545295
861.40 4.51785
861.50 4.521126
861.60 4.556378
861.70 4.586657
861.80 4.592658
861.90 4.598658
862.00 4.604772
862.10 4.610904
862.20 4.606522
862.30 4.592816
862.40 4.580132
862.50 4.571301
862.60 4.56247
862.70 4.580542
862.80 4.601939
862.90 4.613584
863.00 4.617871
863.10 4.620123
863.20 4.616268
863.30 4.612413
863.40 4.590497
863.50 4.567223
863.60 4.562138
863.70 4.568204
863.80 4.57808
863.90 4.596851
864.00 4.615621
864.10 4.624773
864.20 4.633729
864.30 4.649819
864.40 4.669587
864.50 4.680958
864.60 4.67603
864.70 4.670934
864.80 4.657604
864.90 4.644273
865.00 4.645256
865.10 4.652375
865.20 4.65352
865.30 4.644921
865.40 4.6361
865.50 4.623814
865.60 4.611527
865.70 4.590171
865.80 4.565792
865.90 4.505228
866.00 4.396698
866.10 4.272633
866.20 4.022871
866.30 3.77311
866.40 3.658169
866.50 3.579066
866.60 3.666374
866.70 3.941336
866.80 4.198203
866.90 4.352542
867.00 4.506881
867.10 4.56468
867.20 4.604092
867.30 4.616731
867.40 4.604657
867.50 4.582583
867.60 4.520506
867.70 4.458429
867.80 4.473613
867.90 4.499334
868.00 4.550505
868.10 4.621671
868.20 4.665715
868.30 4.628389
868.40 4.591063
868.50 4.573198
868.60 4.556797
868.70 4.515459
868.80 4.458178
868.90 4.383435
869.00 4.265945
869.10 4.148454
869.20 4.199501
869.30 4.253988
869.40 4.315554
869.50 4.380765
869.60 4.428265
869.70 4.441384
869.80 4.454385
869.90 4.461659
870.00 4.468933
870.10 4.467929
870.20 4.463378
870.30 4.46543
870.40 4.477812
870.50 4.490486
870.60 4.507043
870.70 4.523601
870.80 4.531536
870.90 4.536598
871.00 4.530974
871.10 4.511751
871.20 4.49308
871.30 4.478456
871.40 4.463832
871.50 4.476658
871.60 4.496346
871.70 4.503823
871.80 4.498074
871.90 4.494091
872.00 4.498735
872.10 4.503378
872.20 4.536377
872.30 4.574379
872.40 4.599966
872.50 4.614545
872.60 4.63021
872.70 4.649725
872.80 4.669241
872.90 4.685192
873.00 4.700749
873.10 4.695299
873.20 4.674637
873.30 4.651892
873.40 4.623514
873.50 4.595135
873.60 4.578874
873.70 4.56325
873.80 4.56416
873.90 4.574782
874.00 4.589758
874.10 4.613985
874.20 4.638212
874.30 4.661991
874.40 4.68577
874.50 4.689027
874.60 4.682626
874.70 4.67856
874.80 4.678468
874.90 4.677402
875.00 4.657835
875.10 4.638267
875.20 4.645537
875.30 4.662732
875.40 4.678676
875.50 4.692891
875.60 4.702092
875.70 4.666169
875.80 4.630247
875.90 4.628591
876.00 4.636045
876.10 4.649913
876.20 4.671014
876.30 4.687086
876.40 4.674663
876.50 4.662239
876.60 4.627916
876.70 4.589422
876.80 4.580474
876.90 4.598799
877.00 4.620576
877.10 4.655335
877.20 4.690094
877.30 4.679617
877.40 4.663548
877.50 4.644399
877.60 4.622925
877.70 4.619905
877.80 4.669409
877.90 4.718912
878.00 4.694505
878.10 4.66538
878.20 4.649959
878.30 4.642586
878.40 4.640949
878.50 4.652087
878.60 4.663223
878.70 4.667005
878.80 4.670712
878.90 4.670645
879.00 4.668804
879.10 4.666731
879.20 4.664246
879.30 4.660931
879.40 4.641844
879.50 4.622757
879.60 4.623949
879.70 4.632642
879.80 4.641728
879.90 4.65136
880.00 4.658634
880.10 4.644695
880.20 4.630757
880.30 4.578468
880.40 4.515987
880.50 4.453525
880.60 4.391082
880.70 4.327946
880.80 4.261169
880.90 4.194393
881.00 4.269145
881.10 4.370856
881.20 4.484771
881.30 4.609509
881.40 4.712511
881.50 4.73374
881.60 4.754968
881.70 4.760214
881.80 4.763685
881.90 4.76431
882.00 4.762875
882.10 4.749912
882.20 4.705786
882.30 4.661659
882.40 4.563137
882.50 4.461752
882.60 4.41281
882.70 4.393367
882.80 4.415766
882.90 4.527081
883.00 4.637597
883.10 4.66889
883.20 4.700182
883.30 4.727263
883.40 4.752451
883.50 4.764241
883.60 4.754169
883.70 4.744374
883.80 4.738922
883.90 4.733471
884.00 4.716627
884.10 4.695985
884.20 4.694392
884.30 4.717043
884.40 4.735809
884.50 4.726095
884.60 4.716382
884.70 4.712285
884.80 4.709507
884.90 4.706873
885.00 4.704388
885.10 4.705004
885.20 4.719743
885.30 4.734482
885.40 4.766409
885.50 4.800904
885.60 4.812525
885.70 4.805429
885.80 4.791807
885.90 4.757524
886.00 4.723241
886.10 4.672409
886.20 4.620139
886.30 4.594856
886.40 4.586827
886.50 4.58371
886.60 4.592052
886.70 4.600395
886.80 4.580452
886.90 4.559931
887.00 4.542181
887.10 4.525796
887.20 4.512367
887.30 4.504426
887.40 4.497103
887.50 4.504581
887.60 4.512058
887.70 4.529973
887.80 4.551745
887.90 4.580165
888.00 4.618152
888.10 4.65332
888.20 4.663134
888.30 4.672948
888.40 4.667198
888.50 4.65731
888.60 4.641349
888.70 4.618541
888.80 4.599826
888.90 4.602595
889.00 4.605365
889.10 4.624961
889.20 4.647761
889.30 4.655051
889.40 4.648586
889.50 4.637847
889.60 4.611955
889.70 4.586062
889.80 4.561466
889.90 4.537013
890.00 4.53593
890.10 4.551087
890.20 4.568929
890.30 4.59367
890.40 4.618412
890.50 4.626913
890.60 4.634912
890.70 4.645365
890.80 4.657141
890.90 4.658586
891.00 4.639975
891.10 4.620796
891.20 4.583258
891.30 4.545721
891.40 4.544524
891.50 4.558169
891.60 4.572265
891.70 4.587036
891.80 4.601583
891.90 4.613861
892.00 4.626138
892.10 4.625833
892.20 4.621768
892.30 4.612952
892.40 4.598559
892.50 4.58647
892.60 4.587439
892.70 4.588408
892.80 4.576625
892.90 4.562413
893.00 4.564524
893.10 4.581699
893.20 4.599692
893.30 4.620759
893.40 4.641827
893.50 4.659124
893.60 4.676002
893.70 4.681597
893.80 4.679351
893.90 4.669867
894.00 4.64081
894.10 4.611754
894.20 4.590112
894.30 4.56878
894.40 4.563427
894.50 4.56668
894.60 4.562304
894.70 4.543122
894.80 4.524459
894.90 4.531297
895.00 4.538137
895.10 4.56154
895.20 4.59171
895.30 4.617912
895.40 4.638163
895.50 4.657356
895.60 4.665848
895.70 4.674339
895.80 4.673272
895.90 4.669509
896.00 4.658376
896.10 4.638591
896.20 4.62338
896.30 4.634087
896.40 4.644793
896.50 4.639931
896.60 4.632103
896.70 4.627295
896.80 4.625165
896.90 4.623182
897.00 4.621746
897.10 4.620311
897.20 4.629854
897.30 4.640617
897.40 4.635195
897.50 4.618525
897.60 4.602945
897.70 4.590164
897.80 4.577383
897.90 4.581465
898.00 4.586069
898.10 4.607855
898.20 4.638893
898.30 4.658971
898.40 4.657773
898.50 4.657421
898.60 4.684426
898.70 4.711432
898.80 4.713335
898.90 4.705474
899.00 4.696393
899.10 4.685553
899.20 4.676824
899.30 4.687076
899.40 4.697328
899.50 4.707688
899.60 4.718076
899.70 4.718644
899.80 4.708139
899.90 4.689173
900.00 4.625794
900.10 4.562415
900.20 4.560628
900.30 4.56971
900.40 4.620766
900.50 4.707577
900.60 4.776409
900.70 4.785058
900.80 4.793706
900.90 4.773607
901.00 4.751007
901.10 4.704935
901.20 4.643854
901.30 4.609637
901.40 4.641185
901.50 4.672734
901.60 4.691686
901.70 4.710382
901.80 4.702398
901.90 4.681274
902.00 4.664228
902.10 4.65443
902.20 4.645723
902.30 4.657741
902.40 4.669758
902.50 4.675086
902.60 4.678066
902.70 4.673469
902.80 4.65883
902.90 4.646083
903.00 4.6472
903.10 4.648317
903.20 4.684281
903.30 4.728956
903.40 4.749532
903.50 4.745025
903.60 4.742167
903.70 4.746814
903.80 4.751462
903.90 4.752671
904.00 4.753366
904.10 4.765081
904.20 4.785453
904.30 4.791293
904.40 4.753541
904.50 4.715789
904.60 4.702541
904.70 4.690858
904.80 4.677358
904.90 4.662792
905.00 4.657158
905.10 4.670506
905.20 4.683585
905.30 4.670007
905.40 4.65643
905.50 4.654501
905.60 4.657565
905.70 4.659622
905.80 4.660105
905.90 4.659296
906.00 4.643645
906.10 4.627993
906.20 4.592794
906.30 4.551757
906.40 4.530844
906.50 4.533553
906.60 4.540105
906.70 4.568423
906.80 4.596741
906.90 4.624878
907.00 4.652977
907.10 4.679309
907.20 4.704011
907.30 4.722884
907.40 4.719824
907.50 4.716764
907.60 4.712861
907.70 4.708865
907.80 4.714324
907.90 4.726353
908.00 4.7337
908.10 4.729004
908.20 4.724308
908.30 4.720599
908.40 4.71692
908.50 4.705538
908.60 4.690188
908.70 4.6616
908.80 4.608429
908.90 4.55429
909.00 4.476915
909.10 4.399541
909.20 4.402197
909.30 4.434453
909.40 4.482505
909.50 4.552369
909.60 4.617306
909.70 4.642374
909.80 4.667442
909.90 4.678579
910.00 4.686234
910.10 4.701261
910.20 4.723961
910.30 4.743235
910.40 4.746906
910.50 4.750576
910.60 4.737328
910.70 4.721552
910.80 4.702461
910.90 4.680767
911.00 4.665921
911.10 4.671622
911.20 4.677323
911.30 4.676493
911.40 4.675247
911.50 4.676025
911.60 4.677991
911.70 4.678173
911.80 4.67473
911.90 4.671104
912.00 4.649287
912.10 4.627469
912.20 4.627733
912.30 4.637017
912.40 4.657857
912.50 4.696031
912.60 4.729612
912.70 4.716747
912.80 4.703881
912.90 4.708279
913.00 4.717546
913.10 4.726483
913.20 4.735047
913.30 4.747982
913.40 4.783874
913.50 4.819765
913.60 4.821177
913.70 4.816505
913.80 4.783562
913.90 4.726535
914.00 4.675522
914.10 4.644641
914.20 4.613759
914.30 4.636477
914.40 4.663857
914.50 4.674992
914.60 4.675739
914.70 4.670463
914.80 4.651128
914.90 4.631793
915.00 4.637925
915.10 4.644313
915.20 4.651418
915.30 4.65886
915.40 4.672516
915.50 4.696752
915.60 4.720356
915.70 4.735574
915.80 4.750791
915.90 4.746343
916.00 4.735685
916.10 4.727377
916.20 4.721941
916.30 4.714811
916.40 4.697269
916.50 4.679728
916.60 4.684107
916.70 4.692976
916.80 4.696933
916.90 4.696353
917.00 4.696478
917.10 4.699248
917.20 4.702018
917.30 4.706286
917.40 4.710721
917.50 4.714854
917.60 4.718778
917.70 4.732365
917.80 4.770798
917.90 4.809232
918.00 4.797085
918.10 4.783905
918.20 4.763038
918.30 4.738385
918.40 4.721798
918.50 4.71955
918.60 4.71702
918.70 4.709132
918.80 4.701244
918.90 4.717
919.00 4.741062
919.10 4.750191
919.20 4.739525
919.30 4.728912
919.40 4.718687
919.50 4.708464
919.60 4.718338
919.70 4.732927
919.80 4.742508
919.90 4.747277
920.00 4.750497
920.10 4.74753
920.20 4.744563
920.30 4.763677
920.40 4.785521
920.50 4.803428
920.60 4.818485
920.70 4.821703
920.80 4.792917
920.90 4.76413
921.00 4.707542
921.10 4.649796
921.20 4.639483
921.30 4.654709
921.40 4.672111
921.50 4.693553
921.60 4.714441
921.70 4.72206
921.80 4.729679
921.90 4.7223
922.00 4.709374
922.10 4.698857
922.20 4.691664
922.30 4.685489
922.40 4.687556
922.50 4.689622
922.60 4.663143
922.70 4.629527
922.80 4.603693
922.90 4.58564
923.00 4.564052
923.10 4.527385
923.20 4.490718
923.30 4.478647
923.40 4.469931
923.50 4.491251
923.60 4.535232
923.70 4.577666
923.80 4.6157
923.90 4.653733
924.00 4.652194
924.10 4.649006
924.20 4.658845
924.30 4.675699
924.40 4.686432
924.50 4.685282
924.60 4.683923
924.70 4.675801
924.80 4.66768
924.90 4.657919
925.00 4.647522
925.10 4.651033
925.20 4.673753
925.30 4.694573
925.40 4.700026
925.50 4.705477
925.60 4.68586
925.70 4.659977
925.80 4.637851
925.90 4.619638
926.00 4.600611
926.10 4.577876
926.20 4.555139
926.30 4.528024
926.40 4.500256
926.50 4.492368
926.60 4.499481
926.70 4.514293
926.80 4.551021
926.90 4.587748
927.00 4.610163
927.10 4.631826
927.20 4.654841
927.30 4.678616
927.40 4.688808
927.50 4.672629
927.60 4.656439
927.70 4.639871
927.80 4.623302
927.90 4.616454
928.00 4.613386
928.10 4.606621
928.20 4.594536
928.30 4.585166
928.40 4.600244
928.50 4.615322
928.60 4.630821
928.70 4.646424
928.80 4.640131
928.90 4.611046
929.00 4.582696
929.10 4.557693
929.20 4.532689
929.30 4.521616
929.40 4.512623
929.50 4.530775
929.60 4.569404
929.70 4.603042
929.80 4.622477
929.90 4.641912
930.00 4.636681
930.10 4.630152
930.20 4.627556
930.30 4.627172
930.40 4.633265
930.50 4.651928
930.60 4.669858
930.70 4.664105
930.80 4.658351
930.90 4.659502
931.00 4.663338
931.10 4.651139
931.20 4.615868
931.30 4.589862
931.40 4.638828
931.50 4.687793
931.60 4.701926
931.70 4.707349
931.80 4.685306
931.90 4.634676
932.00 4.598215
932.10 4.626299
932.20 4.654383
932.30 4.688849
932.40 4.724185
932.50 4.735814
932.60 4.729558
932.70 4.713137
932.80 4.667787
932.90 4.622436
933.00 4.638871
933.10 4.65788
933.20 4.670957
933.30 4.680839
933.40 4.67991
933.50 4.657994
933.60 4.636549
933.70 4.630327
933.80 4.624104
933.90 4.666146
934.00 4.72604
934.10 4.75133
934.20 4.728835
934.30 4.708981
934.40 4.710496
934.50 4.71201
934.60 4.657453
934.70 4.589744
934.80 4.579144
934.90 4.625653
935.00 4.663612
935.10 4.66512
935.20 4.666628
935.30 4.654254
935.40 4.639988
935.50 4.619253
935.60 4.593996
935.70 4.584826
935.80 4.575654
935.90 4.570226
936.00 4.573961
936.10 4.577696
936.20 4.57774
936.30 4.574999
936.40 4.572257
936.50 4.598174
936.60 4.628758
936.70 4.651305
936.80 4.624484
936.90 4.597664
937.00 4.585912
937.10 4.594971
937.20 4.60403
937.30 4.569196
937.40 4.515552
937.50 4.461908
937.60 4.52377
937.70 4.586797
937.80 4.635253
937.90 4.644312
938.00 4.65337
938.10 4.643213
938.20 4.617335
938.30 4.591457
938.40 4.58811
938.50 4.589378
938.60 4.591994
938.70 4.604498
938.80 4.617002
938.90 4.60926
939.00 4.571152
939.10 4.533043
939.20 4.538494
939.30 4.564444
939.40 4.590394
939.50 4.570184
939.60 4.548546
939.70 4.532133
939.80 4.531393
939.90 4.530652
940.00 4.5325
940.10 4.536553
940.20 4.540607
940.30 4.528157
940.40 4.512085
940.50 4.49822
940.60 4.504214
940.70 4.510208
940.80 4.520354
940.90 4.536992
941.00 4.553631
941.10 4.560341
941.20 4.56216
941.30 4.563981
941.40 4.553575
941.50 4.542526
941.60 4.534748
941.70 4.537326
941.80 4.539904
941.90 4.538051
942.00 4.532108
942.10 4.526166
942.20 4.53824
942.30 4.554541
942.40 4.570755
942.50 4.586093
942.60 4.601431
942.70 4.615607
942.80 4.627808
942.90 4.640008
943.00 4.624257
943.10 4.594108
943.20 4.563958
943.30 4.594341
943.40 4.628588
943.50 4.652935
943.60 4.644143
943.70 4.635351
943.80 4.620938
943.90 4.601127
944.00 4.581315
944.10 4.56724
944.20 4.5546
944.30 4.54224
944.40 4.533107
944.50 4.523974
944.60 4.517012
944.70 4.513748
944.80 4.510484
944.90 4.516993
945.00 4.528765
945.10 4.540537
945.20 4.553163
945.30 4.565845
945.40 4.576165
945.50 4.578111
945.60 4.580058
945.70 4.571859
945.80 4.553913
945.90 4.535966
946.00 4.555946
946.10 4.586009
946.20 4.611389
946.30 4.582929
946.40 4.55447
946.50 4.544996
946.60 4.569273
946.70 4.593551
946.80 4.60511
946.90 4.609822
947.00 4.614534
947.10 4.589673
947.20 4.562585
947.30 4.543307
947.40 4.551717
947.50 4.560127
947.60 4.562545
947.70 4.55897
947.80 4.555395
947.90 4.567646
948.00 4.584102
948.10 4.598992
948.20 4.59585
948.30 4.592709
948.40 4.580871
948.50 4.553575
948.60 4.526278
948.70 4.539456
948.80 4.574426
948.90 4.609398
949.00 4.599065
949.10 4.585323
949.20 4.576926
949.30 4.587481
949.40 4.598036
949.50 4.586582
949.60 4.553981
949.70 4.52138
949.80 4.530303
949.90 4.550266
950.00 4.571464
950.10 4.606869
950.20 4.642273
950.30 4.648344
950.40 4.602268
950.50 4.556191
950.60 4.55262
950.70 4.571939
950.80 4.591258
950.90 4.579119
951.00 4.564973
951.10 4.554208
951.20 4.555432
951.30 4.556655
951.40 4.554231
951.50 4.548303
951.60 4.542373
951.70 4.556984
951.80 4.57673
951.90 4.594611
952.00 4.591055
952.10 4.587497
952.20 4.589448
952.30 4.600778
952.40 4.612107
952.50 4.612567
952.60 4.607427
952.70 4.602286
952.80 4.624223
952.90 4.647585
953.00 4.661481
953.10 4.643691
953.20 4.625901
953.30 4.614739
953.40 4.609694
953.50 4.60465
953.60 4.590745
953.70 4.574762
953.80 4.56048
953.90 4.5634
954.00 4.56632
954.10 4.564268
954.20 4.554103
954.30 4.543938
954.40 4.519834
954.50 4.488863
954.60 4.457893
954.70 4.399084
954.80 4.339116
954.90 4.305339
955.00 4.354496
955.10 4.403654
955.20 4.45503
955.30 4.508372
955.40 4.561714
955.50 4.568708
955.60 4.565527
955.70 4.564027
955.80 4.576114
955.90 4.588201
956.00 4.595478
956.10 4.595539
956.20 4.595601
956.30 4.605719
956.40 4.620568
956.50 4.635418
956.60 4.624308
956.70 4.612395
956.80 4.601706
956.90 4.594499
957.00 4.587292
957.10 4.580613
957.20 4.574365
957.30 4.568118
957.40 4.528728
957.50 4.483025
957.60 4.44526
957.70 4.465706
957.80 4.486152
957.90 4.508506
958.00 4.533606
958.10 4.558706
958.20 4.557892
958.30 4.545972
958.40 4.534053
958.50 4.530378
958.60 4.526787
958.70 4.525611
958.80 4.530649
958.90 4.535687
959.00 4.536679
959.10 4.534619
959.20 4.53256
959.30 4.525487
959.40 4.517598
959.50 4.511045
959.60 4.512066
959.70 4.513088
959.80 4.490085
959.90 4.435238
960.00 4.380392
960.10 4.342267
960.20 4.310645
960.30 4.28
960.40 4.345929
960.50 4.411859
960.60 4.46365
960.70 4.482451
960.80 4.501252
960.90 4.519406
961.00 4.53711
961.10 4.554815
961.20 4.558414
961.30 4.56009
961.40 4.560756
961.50 4.556493
961.60 4.552229
961.70 4.54617
961.80 4.538004
961.90 4.529837
962.00 4.529317
962.10 4.531346
962.20 4.532859
962.30 4.522006
962.40 4.511152
962.50 4.507416
962.60 4.518129
962.70 4.528842
962.80 4.534489
962.90 4.537032
963.00 4.539575
963.10 4.542651
963.20 4.54578
963.30 4.545392
963.40 4.530941
963.50 4.516489
963.60 4.48153
963.70 4.425226
963.80 4.368923
963.90 4.278417
964.00 4.178265
964.10 4.090611
964.20 4.169005
964.30 4.247399
964.40 4.321323
964.50 4.387301
964.60 4.453279
964.70 4.436527
964.80 4.375226
964.90 4.313926
965.00 4.328617
965.10 4.348158
965.20 4.373817
965.30 4.419959
965.40 4.466101
965.50 4.487356
965.60 4.48564
965.70 4.483923
965.80 4.475222
965.90 4.464883
966.00 4.455628
966.10 4.456135
966.20 4.456642
966.30 4.460243
966.40 4.468684
966.50 4.477125
966.60 4.476967
966.70 4.472762
966.80 4.468556
966.90 4.463873
967.00 4.459174
967.10 4.451807
967.20 4.436844
967.30 4.421882
967.40 4.372837
967.50 4.295906
967.60 4.218975
967.70 4.184158
967.80 4.157361
967.90 4.147644
968.00 4.252223
968.10 4.356802
968.20 4.429374
968.30 4.459519
968.40 4.489663
968.50 4.495681
968.60 4.492315
968.70 4.488488
968.80 4.438991
968.90 4.389495
969.00 4.349989
969.10 4.333796
969.20 4.317602
969.30 4.346326
969.40 4.406262
969.50 4.466198
969.60 4.489992
969.70 4.508858
969.80 4.522165
969.90 4.508333
970.00 4.494502
970.10 4.480786
970.20 4.467206
970.30 4.453626
970.40 4.39826
970.50 4.329698
970.60 4.262361
970.70 4.218296
970.80 4.174231
970.90 4.175663
971.00 4.265414
971.10 4.355166
971.20 4.408288
971.30 4.4399
971.40 4.471511
971.50 4.486772
971.60 4.50061
971.70 4.506122
971.80 4.48031
971.90 4.454498
972.00 4.435593
972.10 4.423324
972.20 4.411056
972.30 4.429128
972.40 4.454787
972.50 4.476015
972.60 4.452458
972.70 4.4289
972.80 4.383974
972.90 4.304182
973.00 4.224389
973.10 4.216814
973.20 4.243223
973.30 4.269632
973.40 4.322638
973.50 4.376467
973.60 4.415001
973.70 4.410005
973.80 4.405008
973.90 4.403231
974.00 4.404087
974.10 4.404944
974.20 4.382964
974.30 4.356632
974.40 4.328256
974.50 4.287323
974.60 4.246391
974.70 4.243122
974.80 4.289781
974.90 4.336441
975.00 4.377386
975.10 4.416107
975.20 4.454193
975.30 4.461118
975.40 4.468044
975.50 4.47589
975.60 4.48578
975.70 4.495671
975.80 4.502261
975.90 4.506651
976.00 4.511041
976.10 4.502992
976.20 4.493405
976.30 4.485018
976.40 4.481745
976.50 4.478472
976.60 4.476142
976.70 4.474833
976.80 4.473524
976.90 4.438817
977.00 4.394135
977.10 4.350954
977.20 4.327722
977.30 4.30449
977.40 4.309726
977.50 4.365573
977.60 4.421421
977.70 4.448549
977.80 4.460214
977.90 4.471878
978.00 4.469961
978.10 4.467329
978.20 4.444853
978.30 4.35954
978.40 4.274227
978.50 4.212666
978.60 4.17217
978.70 4.131674
978.80 4.155273
978.90 4.192002
979.00 4.231216
979.10 4.288667
979.20 4.346118
979.30 4.404483
979.40 4.46411
979.50 4.523738
979.60 4.537465
979.70 4.532444
979.80 4.527424
979.90 4.528518
980.00 4.529611
980.10 4.530564
980.20 4.531188
980.30 4.531812
980.40 4.536255
980.50 4.543352
980.60 4.55045
980.70 4.544881
980.80 4.537586
980.90 4.531846
981.00 4.533197
981.10 4.534547
981.20 4.53086
981.30 4.521493
981.40 4.512127
981.50 4.503743
981.60 4.495651
981.70 4.487726
981.80 4.482409
981.90 4.477091
982.00 4.474238
982.10 4.47577
982.20 4.477303
982.30 4.476255
982.40 4.47382
982.50 4.471385
982.60 4.474479
982.70 4.477865
982.80 4.481073
982.90 4.483715
983.00 4.486357
983.10 4.486327
983.20 4.484019
983.30 4.481713
983.40 4.485071
983.50 4.489587
983.60 4.4949
983.70 4.506048
983.80 4.517196
983.90 4.527895
984.00 4.537975
984.10 4.548054
984.20 4.548805
984.30 4.545747
984.40 4.542684
984.50 4.539165
984.60 4.535645
984.70 4.534329
984.80 4.538155
984.90 4.541979
985.00 4.534713
985.10 4.520052
985.20 4.505391
985.30 4.498307
985.40 4.49216
985.50 4.488518
985.60 4.49555
985.70 4.502583
985.80 4.508831
985.90 4.514232
986.00 4.519632
986.10 4.520825
986.20 4.520833
986.30 4.521782
986.40 4.533567
986.50 4.545353
986.60 4.553959
986.70 4.557152
986.80 4.560343
986.90 4.55897
987.00 4.555347
987.10 4.551725
987.20 4.5565
987.30 4.561625
987.40 4.566534
987.50 4.570829
987.60 4.575123
987.70 4.577583
987.80 4.578543
987.90 4.579502
988.00 4.577284
988.10 4.574505
988.20 4.572469
988.30 4.575
988.40 4.577532
988.50 4.582887
988.60 4.591833
988.70 4.60078
988.80 4.587799
988.90 4.567113
989.00 4.5468
989.10 4.538531
989.20 4.530261
989.30 4.520342
989.40 4.507073
989.50 4.493803
989.60 4.468865
989.70 4.436776
989.80 4.404686
989.90 4.389473
990.00 4.375728
990.10 4.364669
990.20 4.363137
990.30 4.361606
990.40 4.339693
990.50 4.298199
990.60 4.256706
990.70 4.230898
990.80 4.208771
990.90 4.190633
991.00 4.204779
991.10 4.218926
991.20 4.229446
991.30 4.234527
991.40 4.239608
991.50 4.220632
991.60 4.191346
991.70 4.162059
991.80 4.154417
991.90 4.146775
992.00 4.149974
992.10 4.179714
992.20 4.209453
992.30 4.219084
992.40 4.214738
992.50 4.210392
992.60 4.206538
992.70 4.202751
992.80 4.203671
992.90 4.226037
993.00 4.248401
993.10 4.270396
993.20 4.291987
993.30 4.313578
993.40 4.300833
993.50 4.278403
993.60 4.257989
993.70 4.264359
993.80 4.270729
993.90 4.284651
994.00 4.311429
994.10 4.338208
994.20 4.346783
994.30 4.346392
994.40 4.346002
994.50 4.350985
994.60 4.356193
994.70 4.362368
994.80 4.371294
994.90 4.38022
995.00 4.386218
995.10 4.389917
995.20 4.393614
995.30 4.381377
995.40 4.366328
995.50 4.351688
995.60 4.339363
995.70 4.327039
995.80 4.31744
995.90 4.311173
996.00 4.304906
996.10 4.293692
996.20 4.28083
996.30 4.26895
996.40 4.280625
996.50 4.292299
996.60 4.30857
996.70 4.333763
996.80 4.358955
996.90 4.349004
997.00 4.319285
997.10 4.289566
997.20 4.2624
997.30 4.235398
997.40 4.21603
997.50 4.220834
997.60 4.225639
997.70 4.238557
997.80 4.258669
997.90 4.278782
998.00 4.291993
998.10 4.303792
998.20 4.311362
998.30 4.290641
998.40 4.269921
998.50 4.252309
998.60 4.23882
998.70 4.225331
998.80 4.228992
998.90 4.239321
999.00 4.249309
999.10 4.24256
999.20 4.235811
999.30 4.235796
999.40 4.250088
999.50 4.26438
999.60 4.26693
999.70 4.262283
999.80 4.257636
999.90 4.253391
1000.00 4.249181
1000.10 4.24947
1000.20 4.267756
1000.30 4.286041
1000.40 4.294084
1000.50 4.291882
1000.60 4.289681
1000.70 4.285982
1000.80 4.28191
1000.90 4.275946
1001.00 4.252961
1001.10 4.229977
1001.20 4.21991
1001.30 4.229222
1001.40 4.238533
1001.50 4.254355
1001.60 4.272968
1001.70 4.291581
1001.80 4.313213
1001.90 4.334846
1002.00 4.345932
1002.10 4.332411
1002.20 4.318889
1002.30 4.321991
1002.40 4.336177
1002.50 4.350363
1002.60 4.355874
1002.70 4.360422
1002.80 4.360611
1002.90 4.343371
1003.00 4.326131
1003.10 4.316899
1003.20 4.315675
1003.30 4.314449
1003.40 4.294585
1003.50 4.270059
1003.60 4.246906
1003.70 4.236105
1003.80 4.225304
1003.90 4.226826
1004.00 4.246832
1004.10 4.266837
1004.20 4.292985
1004.30 4.321766
1004.40 4.350547
1004.50 4.352125
1004.60 4.353704
1004.70 4.350969
1004.80 4.338165
1004.90 4.325362
1005.00 4.298018
1005.10 4.260979
1005.20 4.22394
1005.30 4.204205
1005.40 4.186395
1005.50 4.170471
1005.60 4.162099
1005.70 4.153726
1005.80 4.15192
1005.90 4.156681
1006.00 4.161441
1006.10 4.168855
1006.20 4.176931
1006.30 4.185466
1006.40 4.198121
1006.50 4.210776
1006.60 4.222695
1006.70 4.233509
1006.80 4.244324
1006.90 4.263944
1007.00 4.287338
1007.10 4.310732
1007.20 4.307722
1007.30 4.304712
1007.40 4.303348
1007.50 4.305825
1007.60 4.308301
1007.70 4.314881
1007.80 4.324196
1007.90 4.33351
1008.00 4.330544
1008.10 4.326214
1008.20 4.322005
1008.30 4.318283
1008.40 4.314561
1008.50 4.311927
1008.60 4.310378
1008.70 4.308831
1008.80 4.291746
1008.90 4.270777
1009.00 4.251009
1009.10 4.242048
1009.20 4.233088
1009.30 4.226066
1009.40 4.221952
1009.50 4.217838
1009.60 4.228566
1009.70 4.245655
1009.80 4.262744
1009.90 4.287672
1010.00 4.312599
1010.10 4.331018
1010.20 4.334248
1010.30 4.337477
1010.40 4.332632
1010.50 4.322402
1010.60 4.312172
1010.70 4.301831
1010.80 4.291478
1010.90 4.282342
1011.00 4.27808
1011.10 4.273818
1011.20 4.258785
1011.30 4.232979
1011.40 4.207175
1011.50 4.205203
1011.60 4.209189
1011.70 4.212485
1011.80 4.20955
1011.90 4.206616
1012.00 4.209626
1012.10 4.221551
1012.20 4.233477
1012.30 4.244502
1012.40 4.255141
1012.50 4.265781
1012.60 4.263947
1012.70 4.262114
1012.80 4.262792
1012.90 4.269331
1013.00 4.27587
1013.10 4.281437
1013.20 4.286356
1013.30 4.291275
1013.40 4.281965
1013.50 4.271075
1013.60 4.256848
1013.70 4.229275
1013.80 4.201702
1013.90 4.192272
1014.00 4.200984
1014.10 4.209698
1014.20 4.21936
1014.30 4.22926
1014.40 4.237745
1014.50 4.233507
1014.60 4.22927
1014.70 4.218223
1014.80 4.196961
1014.90 4.175701
1015.00 4.187251
1015.10 4.212863
1015.20 4.238476
1015.30 4.250167
1015.40 4.261859
1015.50 4.266912
1015.60 4.256476
1015.70 4.24604
1015.80 4.236706
1015.90 4.228107
1016.00 4.219507
1016.10 4.233829
1016.20 4.250698
1016.30 4.261003
1016.40 4.24506
1016.50 4.229118
1016.60 4.224638
1016.70 4.231625
1016.80 4.238611
1016.90 4.236442
1017.00 4.231984
1017.10 4.227472
1017.20 4.222474
1017.30 4.217476
1017.40 4.221779
1017.50 4.240034
1017.60 4.258288
1017.70 4.266416
1017.80 4.270204
1017.90 4.27399
1018.00 4.25693
1018.10 4.239868
1018.20 4.228434
1018.30 4.23013
1018.40 4.231825
1018.50 4.227563
1018.60 4.219329
1018.70 4.211094
1018.80 4.209766
1018.90 4.209205
1019.00 4.211668
1019.10 4.226229
1019.20 4.240789
1019.30 4.247328
1019.40 4.245846
1019.50 4.244363
1019.60 4.243775
1019.70 4.24341
1019.80 4.243377
1019.90 4.246321
1020.00 4.249265
1020.10 4.248074
1020.20 4.240679
1020.30 4.233283
1020.40 4.237445
1020.50 4.246561
1020.60 4.255676
1020.70 4.260585
1020.80 4.265493
1020.90 4.272106
1021.00 4.282697
1021.10 4.293288
1021.20 4.28559
1021.30 4.270053
1021.40 4.254515
1021.50 4.229302
1021.60 4.204088
1021.70 4.180685
1021.80 4.161505
1021.90 4.142324
1022.00 4.137003
1022.10 4.140921
1022.20 4.144839
1022.30 4.163691
1022.40 4.184202
1022.50 4.203085
1022.60 4.21545
1022.70 4.227817
1022.80 4.230451
1022.90 4.223355
1023.00 4.216259
1023.10 4.221741
1023.20 4.230368
1023.30 4.237427
1023.40 4.230376
1023.50 4.223324
1023.60 4.223112
1023.70 4.23316
1023.80 4.243207
1023.90 4.251993
1024.00 4.260238
1024.10 4.268483
1024.20 4.279391
1024.30 4.290298
1024.40 4.292128
1024.50 4.272775
1024.60 4.253424
1024.70 4.24112
1024.80 4.233514
1024.90 4.225909
1025.00 4.223133
1025.10 4.220894
1025.20 4.216171
1025.30 4.201514
1025.40 4.186857
1025.50 4.180606
1025.60 4.182759
1025.70 4.184912
1025.80 4.184344
1025.90 4.183096
1026.00 4.180183
1026.10 4.1623
1026.20 4.144416
1026.30 4.133908
1026.40 4.134462
1026.50 4.135015
1026.60 4.143843
1026.70 4.156215
1026.80 4.168589
1026.90 4.187934
1027.00 4.207279
1027.10 4.219972
1027.20 4.217145
1027.30 4.214318
1027.40 4.207172
1027.50 4.197149
1027.60 4.187125
1027.70 4.183547
1027.80 4.180686
1027.90 4.178232
1028.00 4.177414
1028.10 4.176595
1028.20 4.168517
1028.30 4.153179
1028.40 4.137841
1028.50 4.142649
1028.60 4.152493
1028.70 4.162684
1028.80 4.175981
1028.90 4.18928
1029.00 4.201912
1029.10 4.213545
1029.20 4.225178
1029.30 4.221435
1029.40 4.211102
1029.50 4.200769
1029.60 4.201105
1029.70 4.201441
1029.80 4.198577
1029.90 4.190913
1030.00 4.183249
1030.10 4.188479
1030.20 4.199235
1030.30 4.209992
1030.40 4.213885
1030.50 4.217779
1030.60 4.223115
1030.70 4.231818
1030.80 4.24052
1030.90 4.240068
1031.00 4.233512
1031.10 4.226956
1031.20 4.228851
1031.30 4.231686
1031.40 4.232828
1031.50 4.2272
1031.60 4.221573
1031.70 4.21362
1031.80 4.203341
1031.90 4.193064
1032.00 4.188848
1032.10 4.186148
1032.20 4.184473
1032.30 4.192027
1032.40 4.199581
1032.50 4.199623
1032.60 4.188399
1032.70 4.177175
1032.80 4.180107
1032.90 4.189105
1033.00 4.198104
1033.10 4.201973
1033.20 4.205843
1033.30 4.210534
1033.40 4.217142
1033.50 4.22375
1033.60 4.20949
1033.70 4.181318
1033.80 4.153147
1033.90 4.131269
1034.00 4.110091
1034.10 4.080974
1034.20 4.020107
1034.30 3.959241
1034.40 3.872112
1034.50 3.75872
1034.60 3.645329
1034.70 3.671219
1034.80 3.731932
1034.90 3.797564
1035.00 3.907485
1035.10 4.017406
1035.20 4.0879
1035.30 4.099255
1035.40 4.11061
1035.50 4.131256
1035.60 4.155885
1035.70 4.180513
1035.80 4.176027
1035.90 4.17154
1036.00 4.175746
1036.10 4.19299
1036.20 4.210233
1036.30 4.213933
1036.40 4.211827
1036.50 4.209722
1036.60 4.222972
1036.70 4.236222
1036.80 4.244012
1036.90 4.239062
1037.00 4.234113
1037.10 4.235373
1037.20 4.240773
1037.30 4.246173
1037.40 4.244082
1037.50 4.241158
1037.60 4.2365
1037.70 4.224901
1037.80 4.213302
1037.90 4.193792
1038.00 4.16637
1038.10 4.138948
1038.20 4.128268
1038.30 4.121774
1038.40 4.117859
1038.50 4.137152
1038.60 4.156446
1038.70 4.173066
1038.80 4.185676
1038.90 4.198286
1039.00 4.19571
1039.10 4.186626
1039.20 4.177542
1039.30 4.167243
1039.40 4.156944
1039.50 4.135038
1039.60 4.086049
1039.70 4.03706
1039.80 4.009011
1039.90 3.994922
1040.00 3.980833
1040.10 4.032953
1040.20 4.09243
1040.30 4.144767
1040.40 4.168542
1040.50 4.192318
1040.60 4.205728
1040.70 4.208771
1040.80 4.211816
1040.90 4.220332
1041.00 4.230215
1041.10 4.232359
1041.20 4.203541
1041.30 4.174722
1041.40 4.158974
1041.50 4.156294
1041.60 4.153615
1041.70 4.158164
1041.80 4.164521
1041.90 4.171241
1042.00 4.181241
1042.10 4.191241
1042.20 4.191966
1042.30 4.178782
1042.40 4.165597
1042.50 4.148976
1042.60 4.130883
1042.70 4.11279
1042.80 4.110286
1042.90 4.107782
1043.00 4.110478
1043.10 4.125306
1043.20 4.140135
1043.30 4.155306
1043.40 4.170706
1043.50 4.186106
1043.60 4.196506
1043.70 4.206351
1043.80 4.211659
1043.90 4.198822
1044.00 4.185984
1044.10 4.181697
1044.20 4.185959
1044.30 4.190221
1044.40 4.18735
1044.50 4.182696
1044.60 4.178602
1044.70 4.179548
1044.80 4.180494
1044.90 4.181395
1045.00 4.182232
1045.10 4.183067
1045.20 4.18796
1045.30 4.194593
1045.40 4.201224
1045.50 4.194009
1045.60 4.186793
1045.70 4.181981
1045.80 4.180773
1045.90 4.179566
1046.00 4.170377
1046.10 4.157767
1046.20 4.145156
1046.30 4.157065
1046.40 4.168974
1046.50 4.175762
1046.60 4.170602
1046.70 4.165442
1046.80 4.152776
1046.90 4.135106
1047.00 4.117436
1047.10 4.10363
1047.20 4.090253
1047.30 4.082636
1047.40 4.098067
1047.50 4.113498
1047.60 4.122644
1047.70 4.125506
1047.80 4.128368
1047.90 4.142323
1048.00 4.15905
1048.10 4.173895
1048.20 4.171786
1048.30 4.169677
1048.40 4.166667
1048.50 4.162306
1048.60 4.157944
1048.70 4.151026
1048.80 4.143011
1048.90 4.134997
1049.00 4.149894
1049.10 4.164791
1049.20 4.174345
1049.30 4.171432
1049.40 4.168518
1049.50 4.143004
1049.60 4.102422
1049.70 4.06184
1049.80 4.033947
1049.90 4.006053
1050.00 4.00218
1050.10 4.054351
1050.20 4.106521
1050.30 4.140785
1050.40 4.163108
1050.50 4.185432
1050.60 4.184393
1050.70 4.180757
1050.80 4.176033
1050.90 4.166963
1051.00 4.157892
1051.10 4.147209
1051.20 4.134911
1051.30 4.122614
1051.40 4.108873
1051.50 4.09477
1051.60 4.082589
1051.70 4.087715
1051.80 4.09284
1051.90 4.095066
1052.00 4.092944
1052.10 4.090822
1052.20 4.099495
1052.30 4.112798
1052.40 4.126099
1052.50 4.130591
1052.60 4.135083
1052.70 4.143379
1052.80 4.160551
1052.90 4.177722
1053.00 4.181791
1053.10 4.177127
1053.20 4.172461
1053.30 4.162486
1053.40 4.152511
1053.50 4.144293
1053.60 4.140175
1053.70 4.136058
1053.80 4.138884
1053.90 4.146337
1054.00 4.153791
1054.10 4.14637
1054.20 4.137296
1054.30 4.132027
1054.40 4.141978
1054.50 4.151929
1054.60 4.156726
1054.70 4.156369
1054.80 4.156011
1054.90 4.155722
1055.00 4.15545
1055.10 4.154517
1055.20 4.147627
1055.30 4.140737
1055.40 4.134056
1055.50 4.127689
1055.60 4.121322
1055.70 4.111322
1055.80 4.099764
1055.90 4.088206
1056.00 4.082455
1056.10 4.076704
1056.20 4.072658
1056.30 4.072588
1056.40 4.072519
1056.50 4.075799
1056.60 4.081309
1056.70 4.08682
1056.80 4.087934
1056.90 4.088558
1057.00 4.090418
1057.10 4.095158
1057.20 4.099898
1057.30 4.097567
1057.40 4.090522
1057.50 4.083478
1057.60 4.10015
1057.70 4.119457
1057.80 4.134171
1057.90 4.130511
1058.00 4.126852
1058.10 4.128329
1058.20 4.134944
1058.30 4.141558
1058.40 4.098228
1058.50 4.04241
1058.60 3.99025
1058.70 3.970998
1058.80 3.951746
1058.90 3.958173
1059.00 4.00312
1059.10 4.048067
1059.20 4.072989
1059.30 4.089328
1059.40 4.105667
1059.50 4.101897
1059.60 4.098126
1059.70 4.099196
1059.80 4.111554
1059.90 4.123914
1060.00 4.122723
1060.10 4.1125
1060.20 4.102277
1060.30 4.096859
1060.40 4.091441
1060.50 4.083467
1060.60 4.069525
1060.70 4.055584
1060.80 4.044369
1060.90 4.034972
1061.00 4.025574
1061.10 4.030851
1061.20 4.037758
1061.30 4.047707
1061.40 4.069825
1061.50 4.091942
1061.60 4.102695
1061.70 4.102083
1061.80 4.101471
1061.90 4.096935
1062.00 4.091417
1062.10 4.086385
1062.20 4.085728
1062.30 4.085072
1062.40 4.088828
1062.50 4.099206
1062.60 4.109584
1062.70 4.113632
1062.80 4.114966
1062.90 4.116301
1063.00 4.115382
1063.10 4.114464
1063.20 4.110027
1063.30 4.097383
1063.40 4.084737
1063.50 4.086176
1063.60 4.093651
1063.70 4.101125
1063.80 4.107093
1063.90 4.113061
1064.00 4.117595
1064.10 4.118782
1064.20 4.119968
1064.30 4.117368
1064.40 4.112243
1064.50 4.107117
1064.60 4.108474
1064.70 4.110552
1064.80 4.110501
1064.90 4.101932
1065.00 4.093364
1065.10 4.093496
1065.20 4.10233
1065.30 4.111163
1065.40 4.095915
1065.50 4.074647
1065.60 4.056124
1065.70 4.062309
1065.80 4.068493
1065.90 4.066119
1066.00 4.050905
1066.10 4.035691
1066.20 4.001061
1066.30 3.958111
1066.40 3.921153
1066.50 3.938132
1066.60 3.95511
1066.70 3.978342
1066.80 4.010955
1066.90 4.043568
1067.00 4.042598
1067.10 4.027236
1067.20 4.011874
1067.30 4.026441
1067.40 4.041008
1067.50 4.0504
1067.60 4.047718
1067.70 4.045034
1067.80 4.041667
1067.90 4.037841
1068.00 4.034016
1068.10 4.03668
1068.20 4.040065
1068.30 4.042096
1068.40 4.038711
1068.50 4.035326
1068.60 4.028037
1068.70 4.016845
1068.80 4.005652
1068.90 4.010166
1069.00 4.018607
1069.10 4.026124
1069.20 4.025328
1069.30 4.024531
1069.40 4.028085
1069.50 4.03599
1069.60 4.043895
1069.70 4.052498
1069.80 4.061276
1069.90 4.071609
1070.00 4.095936
1070.10 4.120261
1070.20 4.131112
1070.30 4.121749
1070.40 4.112386
1070.50 4.099796
1070.60 4.085824
1070.70 4.071852
1070.80 4.062619
1070.90 4.053387
1071.00 4.047473
1071.10 4.049303
1071.20 4.051133
1071.30 4.057007
1071.40 4.065574
1071.50 4.074143
1071.60 4.082826
1071.70 4.091522
1071.80 4.096305
1071.90 4.085434
1072.00 4.074565
1072.10 4.07531
1072.20 4.0838
1072.30 4.092289
1072.40 4.066357
1072.50 4.036599
1072.60 4.007452
1072.70 3.98075
1072.80 3.954047
1072.90 3.937448
1073.00 3.930954
1073.10 3.92446
1073.20 3.93304
1073.30 3.945389
1073.40 3.95698
1073.50 3.961754
1073.60 3.966529
1073.70 3.985822
1073.80 4.026893
1073.90 4.067963
1074.00 4.084665
1074.10 4.090921
1074.20 4.097178
1074.30 4.098131
1074.40 4.099084
1074.50 4.093944
1074.60 4.074586
1074.70 4.05523
1074.80 4.043935
1074.90 4.036096
1075.00 4.028257
1075.10 4.025467
1075.20 4.022678
1075.30 4.02097
1075.40 4.021784
1075.50 4.022599
1075.60 4.02603
1075.70 4.031203
1075.80 4.036377
1075.90 4.043014
1076.00 4.049815
1076.10 4.05409
1076.20 4.048266
1076.30 4.042444
1076.40 4.045053
1076.50 4.056094
1076.60 4.067135
1076.70 4.065409
1076.80 4.06049
1076.90 4.05616
1077.00 4.057126
1077.10 4.058093
1077.20 4.055575
1077.30 4.047831
1077.40 4.040087
1077.50 4.022547
1077.60 4.002558
1077.70 3.984594
1077.80 3.984845
1077.90 3.985096
1078.00 3.990524
1078.10 4.003715
1078.20 4.016906
1078.30 4.016325
1078.40 4.009841
1078.50 4.003357
1078.60 4.002701
1078.70 4.002044
1078.80 4.002013
1078.90 4.003443
1079.00 4.004875
1079.10 4.003691
1079.20 4.000763
1079.30 3.997836
1079.40 3.994807
1079.50 3.991766
1079.60 3.992474
1079.70 4.00818
1079.80 4.023886
1079.90 4.030645
1080.00 4.028455
1080.10 4.026265
1080.20 4.024932
1080.30 4.023693
1080.40 4.022565
1080.50 4.021873
1080.60 4.021182
1080.70 4.022154
1080.80 4.024789
1080.90 4.027423
1081.00 4.007053
1081.10 3.980932
1081.20 3.95576
1081.30 3.939143
1081.40 3.922525
1081.50 3.924067
1081.60 3.952848
1081.70 3.981628
1081.80 3.994765
1081.90 4.001197
1082.00 4.007629
1082.10 4.002625
1082.20 3.99762
1082.30 3.994025
1082.40 3.993722
1082.50 3.993418
1082.60 3.984736
1082.70 3.972463
1082.80 3.960189
1082.90 3.931344
1083.00 3.902498
1083.10 3.878151
1083.20 3.864303
1083.30 3.850454
1083.40 3.860472
1083.50 3.886401
1083.60 3.912331
1083.70 3.917632
1083.80 3.920642
1083.90 3.926288
1084.00 3.942478
1084.10 3.95867
1084.20 3.967788
1084.30 3.969835
1084.40 3.971882
1084.50 3.971347
1084.60 3.970167
1084.70 3.969628
1084.80 3.974858
1084.90 3.980087
1085.00 3.987955
1085.10 3.99846
1085.20 4.008965
1085.30 4.008372
1085.40 4.005004
1085.50 4.002477
1085.60 4.007513
1085.70 4.012549
1085.80 4.015012
1085.90 4.013615
1086.00 4.012218
1086.10 4.0176
1086.20 4.025887
1086.30 4.034173
1086.40 4.02503
1086.50 4.015887
1086.60 4.009283
1086.70 4.008602
1086.80 4.00792
1086.90 3.992394
1087.00 3.966971
1087.10 3.941547
1087.20 3.940878
1087.30 3.942959
1087.40 3.945886
1087.50 3.952194
1087.60 3.958502
1087.70 3.971686
1087.80 3.989452
1087.90 4.007218
1088.00 4.002029
1088.10 3.99429
1088.20 3.98708
1088.30 3.981989
1088.40 3.976898
1088.50 3.972189
1088.60 3.967862
1088.70 3.963535
1088.80 3.969296
1088.90 3.977579
1089.00 3.984598
1089.10 3.980247
1089.20 3.975895
1089.30 3.970283
1089.40 3.962777
1089.50 3.955272
1089.60 3.949672
1089.70 3.944889
1089.80 3.942489
1089.90 3.961539
1090.00 3.980588
1090.10 3.991462
1090.20 3.990072
1090.30 3.988682
1090.40 3.988975
1090.50 3.98999
1090.60 3.991005
1090.70 3.974577
1090.80 3.958149
1090.90 3.946019
1091.00 3.943917
1091.10 3.941815
1091.20 3.943612
1091.30 3.948008
1091.40 3.952404
1091.50 3.956382
1091.60 3.960314
1091.70 3.962885
1091.80 3.960016
1091.90 3.957147
1092.00 3.962731
1092.10 3.976765
1092.20 3.9908
1092.30 3.998277
1092.40 4.005026
1092.50 4.012305
1092.60 4.021702
1092.70 4.031099
1092.80 4.030057
1092.90 4.018575
1093.00 4.007093
1093.10 4.009313
1093.20 4.014957
1093.30 4.020156
1093.40 4.021343
1093.50 4.02253
1093.60 4.027394
1093.70 4.037775
1093.80 4.048157
1093.90 4.05272
1094.00 4.054791
1094.10 4.056862
1094.20 4.06533
1094.30 4.073799
1094.40 4.071447
1094.50 4.043846
1094.60 4.016244
1094.70 4.012264
1094.80 4.018408
1094.90 4.024551
1095.00 4.023764
1095.10 4.022976
1095.20 4.020118
1095.30 4.01243
1095.40 4.004742
1095.50 3.99896
1095.60 3.994446
1095.70 3.989933
1095.80 3.990689
1095.90 3.992031
1096.00 3.992882
1096.10 3.991771
1096.20 3.99066
1096.30 3.991477
1096.40 3.994222
1096.50 3.996966
1096.60 3.979944
1096.70 3.95798
1096.80 3.939307
1096.90 3.933803
1097.00 3.9283
1097.10 3.923949
1097.20 3.920749
1097.30 3.91755
1097.40 3.927973
1097.50 3.941801
1097.60 3.952565
1097.70 3.935755
1097.80 3.918945
1097.90 3.908249
1098.00 3.906725
1098.10 3.905201
1098.20 3.902543
1098.30 3.8994
1098.40 3.896256
1098.50 3.902843
1098.60 3.90943
1098.70 3.914981
1098.80 3.918113
1098.90 3.921246
1099.00 3.919708
1099.10 3.916169
1099.20 3.912629
1099.30 3.919281
1099.40 3.925934
1099.50 3.930962
1099.60 3.932196
1099.70 3.933431
1099.80 3.932245
1099.90 3.929445
1100.00 3.926645
1100.10 3.934662
1100.20 3.943881
1100.30 3.949785
1100.40 3.94243
1100.50 3.935076
1100.60 3.929266
1100.70 3.925001
1100.80 3.920736
1100.90 3.926267
1101.00 3.934247
1101.10 3.940548
1101.20 3.931732
1101.30 3.922916
1101.40 3.915197
1101.50 3.908576
1101.60 3.901954
1101.70 3.899364
1101.80 3.897782
1101.90 3.896737
1102.00 3.900531
1102.10 3.904326
1102.20 3.907184
1102.30 3.908639
1102.40 3.910094
1102.50 3.913855
1102.60 3.918606
1102.70 3.923356
1102.80 3.929672
1102.90 3.935987
1103.00 3.940434
1103.10 3.940524
1103.20 3.940613
1103.30 3.930587
1103.40 3.916226
1103.50 3.901865
1103.60 3.899873
1103.70 3.897882
1103.80 3.902615
1103.90 3.92304
1104.00 3.943466
1104.10 3.957939
1104.20 3.968444
1104.30 3.978949
1104.40 3.964601
1104.50 3.947492
1104.60 3.933305
1104.70 3.930808
1104.80 3.928311
1104.90 3.925031
1105.00 3.920968
1105.10 3.916906
1105.20 3.913839
1105.30 3.911023
1105.40 3.908901
1105.50 3.913045
1105.60 3.917188
1105.70 3.91423
1105.80 3.904168
1105.90 3.894107
1106.00 3.897444
1106.10 3.904131
1106.20 3.909595
1106.30 3.904054
1106.40 3.898512
1106.50 3.896748
1106.60 3.900649
1106.70 3.904549
1106.80 3.897897
1106.90 3.88672
1107.00 3.875545
1107.10 3.885145
1107.20 3.894745
1107.30 3.900298
1107.40 3.896404
1107.50 3.892511
1107.60 3.89956
1107.70 3.911301
1107.80 3.92304
1107.90 3.918916
1108.00 3.914792
1108.10 3.91391
1108.20 3.920593
1108.30 3.927277
1108.40 3.928097
1108.50 3.925008
1108.60 3.921919
1108.70 3.924047
1108.80 3.926754
1108.90 3.930008
1109.00 3.935453
1109.10 3.940898
1109.20 3.948458
1109.30 3.95813
1109.40 3.967802
1109.50 3.963042
1109.60 3.954673
1109.70 3.947029
1109.80 3.942289
1109.90 3.937549
1110.00 3.932661
1110.10 3.927625
1110.20 3.922589
1110.30 3.921816
1110.40 3.922109
1110.50 3.921249
1110.60 3.910022
1110.70 3.898794
1110.80 3.896471
1110.90 3.907506
1111.00 3.918541
1111.10 3.914787
1111.20 3.904695
1111.30 3.894602
1111.40 3.895273
1111.50 3.895944
1111.60 3.896026
1111.70 3.894733
1111.80 3.89344
1111.90 3.886461
1112.00 3.877047
1112.10 3.867632
1112.20 3.850898
1112.30 3.834163
1112.40 3.828858
1112.50 3.850218
1112.60 3.871579
1112.70 3.891739
1112.80 3.911098
1112.90 3.930457
1113.00 3.931959
1113.10 3.931478
1113.20 3.929399
1113.30 3.92093
1113.40 3.912461
1113.50 3.916797
1113.60 3.933937
1113.70 3.951078
1113.80 3.933479
1113.90 3.907196
1114.00 3.887345
1114.10 3.893224
1114.20 3.899103
1114.30 3.900055
1114.40 3.896083
1114.50 3.892109
1114.60 3.899177
1114.70 3.909004
1114.80 3.918383
1114.90 3.923729
1115.00 3.929074
1115.10 3.9246
1115.20 3.905396
1115.30 3.886191
1115.40 3.887933
1115.50 3.898651
1115.60 3.909369
1115.70 3.892009
1115.80 3.874649
1115.90 3.863351
1116.00 3.861146
1116.10 3.858941
1116.20 3.886858
1116.30 3.927685
1116.40 3.968511
1116.50 3.9579
1116.60 3.947288
1116.70 3.940578
1116.80 3.942972
1116.90 3.945366
1117.00 3.949696
1117.10 3.955317
1117.20 3.960937
1117.30 3.937612
1117.40 3.911071
1117.50 3.887891
1117.60 3.878157
1117.70 3.868422
1117.80 3.880504
1117.90 3.914403
1118.00 3.948302
1118.10 3.951302
1118.20 3.950868
1118.30 3.945084
1118.40 3.917901
1118.50 3.890716
1118.60 3.891988
1118.70 3.921718
1118.80 3.951449
1118.90 3.953264
1119.00 3.9481
1119.10 3.942316
1119.20 3.930937
1119.30 3.919559
1119.40 3.910095
1119.50 3.903504
1119.60 3.896914
1119.70 3.902211
1119.80 3.912602
1119.90 3.92157
1120.00 3.917738
1120.10 3.913907
1120.20 3.90647
1120.30 3.893626
1120.40 3.880781
1120.50 3.870729
1120.60 3.861871
1120.70 3.853014
1120.80 3.880484
1120.90 3.907953
1121.00 3.926772
1121.10 3.925403
1121.20 3.924034
1121.30 3.903768
1121.40 3.870905
1121.50 3.838041
1121.60 3.87013
1121.70 3.909436
1121.80 3.941443
1121.90 3.94425
1122.00 3.947058
1122.10 3.947638
1122.20 3.946734
1122.30 3.945829
1122.40 3.959617
1122.50 3.975038
1122.60 3.979042
1122.70 3.937383
1122.80 3.895724
1122.90 3.887235
1123.00 3.911915
1123.10 3.936596
1123.20 3.953179
1123.30 3.96774
1123.40 3.982289
1123.50 3.996728
1123.60 3.968269
1123.70 3.911213
1123.80 3.854156
1123.90 3.832527
1124.00 3.86404
1124.10 3.895552
1124.20 3.923481
1124.30 3.919163
1124.40 3.914844
1124.50 3.910525
1124.60 3.89844
1124.70 3.885491
1124.80 3.872542
1124.90 3.869372
1125.00 3.872721
1125.10 3.87607
1125.20 3.859406
1125.30 3.796046
1125.40 3.732686
1125.50 3.670348
1125.60 3.617205
1125.70 3.564062
1125.80 3.510918
1125.90 3.610329
1126.00 3.747877
1126.10 3.885425
1126.20 3.927286
1126.30 3.905353
1126.40 3.883421
1126.50 3.870951
1126.60 3.880561
1126.70 3.890171
1126.80 3.899266
1126.90 3.903729
1127.00 3.908192
1127.10 3.912656
1127.20 3.906927
1127.30 3.89865
1127.40 3.890372
1127.50 3.889758
1127.60 3.894252
1127.70 3.898747
1127.80 3.89794
1127.90 3.884763
1128.00 3.871587
1128.10 3.86156
1128.20 3.879879
1128.30 3.898198
1128.40 3.916516
1128.50 3.896045
1128.60 3.865875
1128.70 3.835706
1128.80 3.820536
1128.90 3.815366
1129.00 3.810196
1129.10 3.809094
1129.20 3.817483
1129.30 3.825873
1129.40 3.834262
1129.50 3.84658
1129.60 3.858897
1129.70 3.871215
1129.80 3.849745
1129.90 3.819828
1130.00 3.789912
1130.10 3.779149
1130.20 3.787539
1130.30 3.79593
1130.40 3.802781
1130.50 3.80604
1130.60 3.809299
1130.70 3.812558
1130.80 3.818049
1130.90 3.82354
1131.00 3.829032
1131.10 3.830632
1131.20 3.83126
1131.30 3.831887
1131.40 3.829087
1131.50 3.822859
1131.60 3.81663
1131.70 3.815185
1131.80 3.824899
1131.90 3.834615
1132.00 3.84433
1132.10 3.854117
1132.20 3.863903
1132.30 3.873689
1132.40 3.866006
1132.50 3.853955
1132.60 3.841904
1132.70 3.840116
1132.80 3.848591
1132.90 3.857065
1133.00 3.860103
1133.10 3.850456
1133.20 3.840808
1133.30 3.831161
1133.40 3.820927
1133.50 3.810694
1133.60 3.80046
1133.70 3.813203
1133.80 3.83169
1133.90 3.850178
1134.00 3.865053
1134.10 3.876313
1134.20 3.887574
1134.30 3.892362
1134.40 3.882048
1134.50 3.871733
1134.60 3.861419
1134.70 3.850782
1134.80 3.840145
1134.90 3.829508
1135.00 3.84342
1135.10 3.86347
1135.20 3.883519
1135.30 3.903572
1135.40 3.923631
1135.50 3.943689
1135.60 3.958715
1135.70 3.953619
1135.80 3.948523
1135.90 3.943426
1136.00 3.88393
1136.10 3.824435
1136.20 3.76494
1136.30 3.771038
1136.40 3.805247
1136.50 3.839457
1136.60 3.851774
1136.70 3.8422
1136.80 3.832625
1136.90 3.822416
1137.00 3.809666
1137.10 3.796917
1137.20 3.784167
1137.30 3.77679
1137.40 3.769414
1137.50 3.762037
1137.60 3.73076
1137.70 3.68924
1137.80 3.64772
1137.90 3.598985
1138.00 3.543036
1138.10 3.487087
1138.20 3.428809
1138.30 3.361217
1138.40 3.293626
1138.50 3.226034
1138.60 3.312823
1138.70 3.399612
1138.80 3.486401
1138.90 3.563315
1139.00 3.635997
1139.10 3.708679
1139.20 3.740543
1139.30 3.731588
1139.40 3.722633
1139.50 3.718476
1139.60 3.733516
1139.70 3.748556
1139.80 3.763595
1139.90 3.716581
1140.00 3.669568
1140.10 3.622554
1140.20 3.531269
1140.30 3.421011
1140.40 3.310753
1140.50 3.23267
1140.60 3.186762
1140.70 3.140855
1140.80 3.126518
1140.90 3.238469
1141.00 3.350419
1141.10 3.46237
1141.20 3.553208
1141.30 3.644047
1141.40 3.734885
1141.50 3.765012
1141.60 3.769119
1141.70 3.773225
1141.80 3.778213
1141.90 3.784081
1142.00 3.789948
1142.10 3.787429
1142.20 3.751359
1142.30 3.715289
1142.40 3.67922
1142.50 3.692644
1142.60 3.706068
1142.70 3.719493
1142.80 3.732323
1142.90 3.744899
1143.00 3.757475
1143.10 3.765796
1143.20 3.769862
1143.30 3.773929
1143.40 3.779137
1143.50 3.788905
1143.60 3.798674
1143.70 3.808444
1143.80 3.784159
1143.90 3.759873
1144.00 3.735589
1144.10 3.730463
1144.20 3.733548
1144.30 3.736633
1144.40 3.73674
1144.50 3.73387
1144.60 3.730999
1144.70 3.734142
1144.80 3.761336
1144.90 3.788531
1145.00 3.815725
1145.10 3.804822
1145.20 3.793919
1145.30 3.783017
1145.40 3.783354
1145.50 3.788508
1145.60 3.793663
1145.70 3.797757
1145.80 3.800791
1145.90 3.803825
1146.00 3.806574
1146.10 3.808188
1146.20 3.809802
1146.30 3.811415
1146.40 3.816121
1146.50 3.820827
1146.60 3.825533
1146.70 3.817848
1146.80 3.804855
1146.90 3.791861
1147.00 3.790862
1147.10 3.801858
1147.20 3.812854
1147.30 3.817357
1147.40 3.795888
1147.50 3.77442
1147.60 3.752952
1147.70 3.751629
1147.80 3.750307
1147.90 3.748983
1148.00 3.758192
1148.10 3.771914
1148.20 3.785636
1148.30 3.785325
1148.40 3.77098
1148.50 3.756635
1148.60 3.741306
1148.70 3.722041
1148.80 3.702776
1148.90 3.68351
1149.00 3.701122
1149.10 3.718734
1149.20 3.736347
1149.30 3.765046
1149.40 3.798499
1149.50 3.831951
1149.60 3.835378
1149.70 3.808783
1149.80 3.782188
1149.90 3.76137
1150.00 3.763663
1150.10 3.765955
1150.20 3.768248
1150.30 3.779156
1150.40 3.790065
1150.50 3.800974
1150.60 3.797891
1150.70 3.788813
1150.80 3.779734
1150.90 3.774466
1151.00 3.773008
1151.10 3.771551
1151.20 3.76951
1151.30 3.765136
1151.40 3.760762
1151.50 3.756388
1151.60 3.772772
1151.70 3.789155
1151.80 3.805539
1151.90 3.790898
1152.00 3.768501
1152.10 3.746105
1152.20 3.743049
1152.30 3.759334
1152.40 3.775619
1152.50 3.781083
1152.60 3.761301
1152.70 3.741519
1152.80 3.721737
1152.90 3.724848
1153.00 3.72796
1153.10 3.731071
1153.20 3.743025
1153.30 3.757189
1153.40 3.771354
1153.50 3.773347
1153.60 3.763169
1153.70 3.752991
1153.80 3.746012
1153.90 3.746502
1154.00 3.746992
1154.10 3.747482
1154.20 3.744805
1154.30 3.74213
1154.40 3.739454
1154.50 3.739999
1154.60 3.741351
1154.70 3.742701
1154.80 3.741243
1154.90 3.736977
1155.00 3.732711
1155.10 3.730864
1155.20 3.734663
1155.30 3.738463
1155.40 3.742262
1155.50 3.747181
1155.60 3.752101
1155.70 3.75702
1155.80 3.750144
1155.90 3.740319
1156.00 3.730495
1156.10 3.733965
1156.20 3.750732
1156.30 3.767498
1156.40 3.774107
1156.50 3.757016
1156.60 3.739925
1156.70 3.722833
1156.80 3.721112
1156.90 3.71939
1157.00 3.71767
1157.10 3.719734
1157.20 3.722746
1157.30 3.725757
1157.40 3.731173
1157.50 3.738991
1157.60 3.74681
1157.70 3.749406
1157.80 3.739817
1157.90 3.730228
1158.00 3.722671
1158.10 3.733396
1158.20 3.744121
1158.30 3.754847
1158.40 3.757217
1158.50 3.757498
1158.60 3.75778
1158.70 3.756196
1158.80 3.753367
1158.90 3.750539
1159.00 3.742737
1159.10 3.723329
1159.20 3.703921
1159.30 3.684347
1159.40 3.663276
1159.50 3.642205
1159.60 3.621134
1159.70 3.622016
1159.80 3.628387
1159.90 3.634757
1160.00 3.651132
1160.10 3.674176
1160.20 3.69722
1160.30 3.709637
1160.40 3.697259
1160.50 3.684881
1160.60 3.669409
1160.70 3.626103
1160.80 3.582795
1160.90 3.539488
1161.00 3.52159
1161.10 3.510045
1161.20 3.4985
1161.30 3.513904
1161.40 3.547277
1161.50 3.58065
1161.60 3.61148
1161.70 3.636379
1161.80 3.661278
1161.90 3.684106
1162.00 3.688293
1162.10 3.692482
1162.20 3.69667
1162.30 3.692671
1162.40 3.687763
1162.50 3.682855
1162.60 3.68231
1162.70 3.684676
1162.80 3.687041
1162.90 3.688584
1163.00 3.68889
1163.10 3.689197
1163.20 3.688699
1163.30 3.680959
1163.40 3.673218
1163.50 3.665477
1163.60 3.645595
1163.70 3.624364
1163.80 3.603132
1163.90 3.58187
1164.00 3.560588
1164.10 3.539305
1164.20 3.538853
1164.30 3.569648
1164.40 3.600443
1164.50 3.629923
1164.60 3.647575
1164.70 3.665227
1164.80 3.682878
1164.90 3.688893
1165.00 3.693616
1165.10 3.698338
1165.20 3.695136
1165.30 3.686649
1165.40 3.678163
1165.50 3.671514
1165.60 3.667622
1165.70 3.663731
1165.80 3.658749
1165.90 3.649408
1166.00 3.640067
1166.10 3.630726
1166.20 3.637926
1166.30 3.646964
1166.40 3.656002
1166.50 3.659245
1166.60 3.660005
1166.70 3.660765
1166.80 3.660637
1166.90 3.659177
1167.00 3.657717
1167.10 3.655132
1167.20 3.648045
1167.30 3.640959
1167.40 3.633872
1167.50 3.633717
1167.60 3.634333
1167.70 3.634948
1167.80 3.638915
1167.90 3.644319
1168.00 3.649722
1168.10 3.654594
1168.20 3.658669
1168.30 3.662744
1168.40 3.664727
1168.50 3.658345
1168.60 3.651963
1168.70 3.645581
1168.80 3.607466
1168.90 3.569351
1169.00 3.531237
1169.10 3.483345
1169.20 3.431263
1169.30 3.379182
1169.40 3.380277
1169.50 3.434549
1169.60 3.488821
1169.70 3.538909
1169.80 3.572265
1169.90 3.605621
1170.00 3.638977
1170.10 3.643272
1170.20 3.647567
1170.30 3.651861
1170.40 3.651826
1170.50 3.649933
1170.60 3.648041
1170.70 3.647249
1170.80 3.647559
1170.90 3.647868
1171.00 3.647693
1171.10 3.645578
1171.20 3.643462
1171.30 3.641346
1171.40 3.646297
1171.50 3.651249
1171.60 3.6562
1171.70 3.65393
1171.80 3.649854
1171.90 3.645779
1172.00 3.643002
1172.10 3.641521
1172.20 3.640042
1172.30 3.639169
1172.40 3.639715
1172.50 3.640262
1172.60 3.640807
1172.70 3.642528
1172.80 3.644249
1172.90 3.645971
1173.00 3.647004
1173.10 3.647865
1173.20 3.648726
1173.30 3.650782
1173.40 3.654032
1173.50 3.657283
1173.60 3.658139
1173.70 3.653408
1173.80 3.648678
1173.90 3.64467
1174.00 3.647175
1174.10 3.64968
1174.20 3.652185
1174.30 3.653013
1174.40 3.653422
1174.50 3.653832
1174.60 3.655616
1174.70 3.658318
1174.80 3.66102
1174.90 3.657905
1175.00 3.641216
1175.10 3.624528
1175.20 3.607671
1175.30 3.5893
1175.40 3.570927
1175.50 3.552555
1175.60 3.548923
1175.70 3.548975
1175.80 3.549027
1175.90 3.557046
1176.00 3.570376
1176.10 3.583707
1176.20 3.594301
1176.30 3.600791
1176.40 3.607281
1176.50 3.612689
1176.60 3.608358
1176.70 3.604028
1176.80 3.599698
1176.90 3.567735
1177.00 3.532702
1177.10 3.497669
1177.20 3.450986
1177.30 3.396536
1177.40 3.342086
1177.50 3.316888
1177.60 3.335571
1177.70 3.354252
1177.80 3.376201
1177.90 3.427563
1178.00 3.478926
1178.10 3.530288
1178.20 3.521366
1178.30 3.505745
1178.40 3.490125
1178.50 3.48539
1178.60 3.485319
1178.70 3.485249
1178.80 3.497595
1178.90 3.528565
1179.00 3.559536
1179.10 3.584893
1179.20 3.587797
1179.30 3.590702
1179.40 3.593606
1179.50 3.576974
1179.60 3.558169
1179.70 3.539365
1179.80 3.536189
1179.90 3.539709
1180.00 3.543229
1180.10 3.545872
1180.20 3.547637
1180.30 3.549401
1180.40 3.553234
1180.50 3.565339
1180.60 3.577445
1180.70 3.58955
1180.80 3.594999
1180.90 3.600447
1181.00 3.605896
1181.10 3.605541
1181.20 3.6027
1181.30 3.599859
1181.40 3.597996
1181.50 3.597113
1181.60 3.596229
1181.70 3.595162
1181.80 3.593359
1181.90 3.591557
1182.00 3.589755
1182.10 3.585526
1182.20 3.581297
1182.30 3.577068
1182.40 3.560082
1182.50 3.539906
1182.60 3.51973
1182.70 3.465142
1182.80 3.376144
1182.90 3.287144
1183.00 3.224629
1183.10 3.223905
1183.20 3.223182
1183.30 3.222458
1183.40 3.301822
1183.50 3.381185
1183.60 3.460549
1183.70 3.491171
1183.80 3.50961
1183.90 3.528048
1184.00 3.537045
1184.10 3.539746
1184.20 3.542449
1184.30 3.546057
1184.40 3.55178
1184.50 3.557503
1184.60 3.562731
1184.70 3.563493
1184.80 3.564255
1184.90 3.565018
1185.00 3.564391
1185.10 3.563416
1185.20 3.562441
1185.30 3.565251
1185.40 3.570586
1185.50 3.57592
1185.60 3.578957
1185.70 3.57855
1185.80 3.578141
1185.90 3.577483
1186.00 3.574575
1186.10 3.571667
1186.20 3.568759
1186.30 3.571084
1186.40 3.573991
1186.50 3.576899
1186.60 3.57364
1186.70 3.566272
1186.80 3.558903
1186.90 3.557038
1187.00 3.563429
1187.10 3.569821
1187.20 3.575816
1187.30 3.578242
1187.40 3.580668
1187.50 3.583094
1187.60 3.577674
1187.70 3.571382
1187.80 3.56509
1187.90 3.551668
1188.00 3.53519
1188.10 3.518712
1188.20 3.476857
1188.30 3.396936
1188.40 3.317016
1188.50 3.252441
1188.60 3.249249
1188.70 3.246058
1188.80 3.242866
1188.90 3.309463
1189.00 3.383814
1189.10 3.458165
1189.20 3.475637
1189.30 3.468733
1189.40 3.461828
1189.50 3.461538
1189.60 3.467861
1189.70 3.474185
1189.80 3.482294
1189.90 3.497547
1190.00 3.512798
1190.10 3.528049
1190.20 3.537792
1190.30 3.547536
1190.40 3.557279
1190.50 3.557088
1190.60 3.552638
1190.70 3.548189
1190.80 3.545544
1190.90 3.544702
1191.00 3.54386
1191.10 3.542502
1191.20 3.539938
1191.30 3.537374
1191.40 3.53481
1191.50 3.539623
1191.60 3.544435
1191.70 3.549247
1191.80 3.549662
1191.90 3.548978
1192.00 3.548294
1192.10 3.549026
1192.20 3.551174
1192.30 3.553321
1192.40 3.552713
1192.50 3.545672
1192.60 3.538631
1192.70 3.532404
1192.80 3.533505
1192.90 3.534605
1193.00 3.535705
1193.10 3.53711
1193.20 3.538589
1193.30 3.54007
1193.40 3.539067
1193.50 3.536408
1193.60 3.53375
1193.70 3.530562
1193.80 3.526579
1193.90 3.522597
1194.00 3.519101
1194.10 3.51998
1194.20 3.52086
1194.30 3.521739
1194.40 3.51707
1194.50 3.511785
1194.60 3.506499
1194.70 3.494623
1194.80 3.478353
1194.90 3.462083
1195.00 3.44418
1195.10 3.423829
1195.20 3.403479
1195.30 3.390707
1195.40 3.408251
1195.50 3.425796
1195.60 3.44334
1195.70 3.448274
1195.80 3.451806
1195.90 3.455338
1196.00 3.46332
1196.10 3.47321
1196.20 3.4831
1196.30 3.488578
1196.40 3.487441
1196.50 3.486303
1196.60 3.484997
1196.70 3.483018
1196.80 3.481038
1196.90 3.479059
1197.00 3.450127
1197.10 3.421196
1197.20 3.392264
1197.30 3.328087
1197.40 3.248805
1197.50 3.169524
1197.60 3.138808
1197.70 3.156659
1197.80 3.174511
1197.90 3.202926
1198.00 3.273597
1198.10 3.344268
1198.20 3.414939
1198.30 3.417092
1198.40 3.419246
1198.50 3.421399
1198.60 3.424336
1198.70 3.427468
1198.80 3.430601
1198.90 3.433223
1199.00 3.435336
1199.10 3.437449
1199.20 3.439489
1199.30 3.441362
1199.40 3.443233
1199.50 3.445365
1199.60 3.449832
1199.70 3.454298
1199.80 3.458764
1199.90 3.461334
1200.00 3.463429
